* Measurement data measured by REW V5.20
* Source: Microphone (Sound Blaster Play! 3), MICROPHONE (Master Volume), L, volume: 0.250
* Format: 256k Log Swept Sine, 1 sweep at -12.0 dBFS with no timing reference
* Dated: Jan 4, 2022 3:51:31 PM
* REW Settings:
*  C-weighting compensation: Off
*  Target level: 75.0 dB
* Note: 64Audio Trio R
* Measurement: 64Audio Trio R
* Smoothing: 1/12 octave
* Frequency Step: 1/48 octave
* Start Frequency: 20.000 Hz
*
* Freq(Hz)	SPL(dB)	Phase(degrees)
20.000000	96.7	3.7220
20.299999	96.7	1.5980
20.600000	96.8	-0.4954
20.900000	96.8	-2.5586
21.200001	96.9	-4.5916
21.400000	96.9	-5.9295
21.799999	97.0	-8.5635
22.000000	97.0	-9.8602
22.400000	97.0	-12.4160
22.700001	97.1	-14.3045
23.000000	97.1	-16.1730
23.299999	97.1	-18.0238
23.600000	97.2	-19.8560
24.000000	97.2	-22.2656
24.299999	97.2	-24.0430
24.700001	97.3	-26.3680
25.000000	97.3	-28.0784
25.400000	97.3	-30.3195
25.799999	97.3	-32.5247
26.200001	97.3	-34.7009
26.500000	97.4	-36.3146
26.900000	97.4	-38.4385
27.200001	97.4	-40.0077
27.600000	97.4	-42.0657
28.000000	97.4	-44.0856
28.500000	97.4	-46.5625
29.000000	97.4	-48.9937
29.500000	97.4	-51.3821
30.000000	97.4	-53.7275
30.400000	97.4	-55.5717
30.700001	97.4	-56.9360
31.100000	97.4	-58.7305
31.500000	97.4	-60.4987
32.000000	97.4	-62.6765
32.500000	97.4	-64.8232
33.000000	97.4	-66.9405
33.500000	97.4	-69.0247
34.000000	97.4	-71.0707
34.500000	97.4	-73.0778
35.000000	97.4	-75.0499
35.500000	97.3	-76.9908
36.000000	97.3	-78.9011
36.500000	97.3	-80.7798
37.000000	97.3	-82.6276
37.500000	97.3	-84.4475
38.200001	97.2	-86.9529
38.700001	97.2	-88.7108
39.500000	97.2	-91.4628
40.000000	97.1	-93.1458
40.599998	97.1	-95.1327
41.200001	97.1	-97.0877
41.799999	97.1	-99.0085
42.500000	97.0	-101.1943
43.099998	97.0	-103.0123
43.700001	96.9	-104.7841
44.400002	96.9	-106.8124
45.000000	96.9	-108.5300
45.500000	96.8	-109.9448
46.200001	96.8	-111.8909
46.799999	96.8	-113.5258
47.500000	96.7	-115.4052
48.200001	96.7	-117.2631
48.700001	96.6	-118.5775
49.400002	96.6	-120.3996
50.000000	96.6	-121.9447
50.799999	96.5	-123.9718
51.500000	96.5	-125.7004
52.200001	96.4	-127.3882
53.000000	96.3	-129.2896
53.799999	96.3	-131.1720
54.500000	96.2	-132.7872
55.200001	96.2	-134.3577
56.000000	96.1	-136.1025
57.000000	96.1	-138.2294
58.000000	96.0	-140.2997
59.000000	95.9	-142.3147
60.000000	95.8	-144.2853
60.799999	95.8	-145.8367
61.500000	95.7	-147.1816
62.200001	95.7	-148.5170
63.000000	95.6	-150.0249
64.000000	95.6	-151.8713
65.000000	95.5	-153.6734
66.000000	95.4	-155.4292
67.000000	95.3	-157.1252
68.000000	95.3	-158.7639
69.000000	95.2	-160.3701
70.000000	95.1	-161.9703
71.000000	95.1	-163.5627
72.000000	95.0	-165.1035
73.000000	94.9	-166.5740
74.000000	94.9	-168.0156
75.000000	94.8	-169.4545
76.199997	94.7	-171.1595
77.500000	94.6	-172.9749
78.800003	94.5	-174.7521
80.000000	94.4	-176.3152
81.199997	94.3	-177.8010
82.500000	94.3	-179.3869
83.800003	94.2	179.0560
85.000000	94.1	177.6973
86.199997	94.1	176.4213
87.500000	94.0	175.0936
88.500000	94.0	174.0414
90.000000	93.9	172.3217
91.199997	93.8	170.9244
92.500000	93.7	169.5197
93.800003	93.6	168.2081
95.000000	93.5	166.9875
96.199997	93.4	165.6987
97.500000	93.4	164.2614
98.800003	93.3	162.8689
100.000000	93.2	161.6755
101.500000	93.1	160.3186
103.000000	93.0	159.0526
104.400002	93.0	157.8698
106.000000	92.9	156.4707
107.500000	92.8	155.1486
109.000000	92.8	153.8686
110.599998	92.7	152.5486
112.000000	92.6	151.3937
113.800003	92.5	149.8990
115.000000	92.5	148.9225
117.199997	92.4	147.2047
118.000000	92.4	146.5878
120.599998	92.3	144.5620
122.000000	92.2	143.5289
124.099998	92.1	142.0659
125.000000	92.0	141.4482
126.500000	91.9	140.4332
128.000000	91.8	139.4529
131.500000	91.7	137.2617
132.000000	91.6	136.9451
134.000000	91.6	135.6617
136.000000	91.5	134.4104
138.000000	91.4	133.2450
140.000000	91.3	132.1381
143.000000	91.2	130.4520
145.000000	91.1	129.2890
147.500000	91.0	127.8534
150.000000	90.9	126.4723
152.500000	90.8	125.1315
155.000000	90.7	123.8180
157.500000	90.6	122.5542
160.000000	90.5	121.3354
162.500000	90.5	120.1256
165.000000	90.4	118.9166
167.500000	90.3	117.7426
170.000000	90.2	116.6210
172.500000	90.1	115.5364
175.000000	90.0	114.4692
177.500000	89.9	113.4128
180.000000	89.9	112.3763
182.500000	89.8	111.3663
185.000000	89.7	110.3697
187.500000	89.6	109.3746
190.000000	89.6	108.3862
192.500000	89.5	107.4125
195.000000	89.4	106.4604
197.500000	89.4	105.5313
200.000000	89.3	104.6187
203.000000	89.2	103.5394
206.000000	89.1	102.4768
209.000000	89.1	101.4312
212.000000	89.0	100.4055
214.000000	89.0	99.7381
218.000000	88.9	98.4420
220.000000	88.8	97.8048
224.000000	88.7	96.5422
227.000000	88.7	95.6094
230.000000	88.6	94.6909
233.000000	88.5	93.7850
236.000000	88.5	92.8933
240.000000	88.4	91.7352
243.000000	88.4	90.8881
247.000000	88.3	89.7794
250.000000	88.2	88.9593
254.000000	88.2	87.8790
258.000000	88.1	86.8206
262.000000	88.0	85.7889
265.000000	88.0	85.0311
269.000000	87.9	84.0385
272.000000	87.9	83.3066
276.000000	87.9	82.3462
280.000000	87.8	81.3954
285.000000	87.7	80.2038
290.000000	87.7	79.0151
295.000000	87.6	77.8541
300.000000	87.6	76.7271
304.000000	87.6	75.8492
307.000000	87.5	75.2036
311.000000	87.5	74.3550
315.000000	87.5	73.5168
320.000000	87.4	72.4833
325.000000	87.4	71.4681
330.000000	87.3	70.4734
335.000000	87.3	69.4957
340.000000	87.3	68.5331
345.000000	87.3	67.5892
350.000000	87.2	66.6626
355.000000	87.2	65.7469
360.000000	87.2	64.8403
365.000000	87.2	63.9452
370.000000	87.2	63.0624
375.000000	87.1	62.1912
382.000000	87.1	60.9903
387.000000	87.1	60.1455
395.000000	87.1	58.8133
400.000000	87.1	57.9902
406.000000	87.1	57.0122
412.000000	87.1	56.0462
418.000000	87.1	55.0914
425.000000	87.1	53.9909
431.000000	87.1	53.0580
437.000000	87.2	52.1324
444.000000	87.2	51.0588
450.000000	87.2	50.1431
455.000000	87.2	49.3824
462.000000	87.2	48.3212
468.000000	87.3	47.4166
475.000000	87.3	46.3657
482.000000	87.3	45.3157
487.000000	87.4	44.5651
494.000000	87.4	43.5136
500.000000	87.4	42.6129
508.000000	87.5	41.4109
515.000000	87.5	40.3563
522.000000	87.6	39.2990
530.000000	87.6	38.0859
538.000000	87.7	36.8672
545.000000	87.7	35.7973
552.000000	87.7	34.7235
560.000000	87.8	33.4935
570.000000	87.9	31.9625
580.000000	87.9	30.4511
590.000000	88.0	28.9678
600.000000	88.0	27.5273
608.000000	88.1	26.4175
615.000000	88.1	25.4806
622.000000	88.2	24.5693
630.000000	88.2	23.5409
640.000000	88.3	22.2240
650.000000	88.5	20.7913
660.000000	88.6	19.1712
670.000000	88.7	17.3483
680.000000	88.8	15.3616
690.000000	88.9	13.2759
700.000000	89.0	11.1552
710.000000	89.0	9.0485
720.000000	89.0	6.9867
730.000000	89.0	4.9882
740.000000	88.9	3.0635
750.000000	88.9	1.2189
762.000000	88.8	-0.8833
775.000000	88.7	-3.0184
788.000000	88.6	-4.9999
800.000000	88.5	-6.6877
812.000000	88.4	-8.2382
825.000000	88.3	-9.7619
838.000000	88.2	-11.1266
850.000000	88.1	-12.2495
862.000000	88.0	-13.2446
875.000000	87.8	-14.1837
885.000000	87.8	-14.8142
900.000000	87.7	-15.6251
912.000000	87.6	-16.1708
925.000000	87.5	-16.6750
938.000000	87.5	-17.1056
950.000000	87.4	-17.4521
962.000000	87.4	-17.7609
975.000000	87.4	-18.0649
988.000000	87.4	-18.3475
1000.000000	87.4	-18.5966
1015.000000	87.4	-18.9006
1030.000000	87.4	-19.2004
1044.000000	87.5	-19.4787
1060.000000	87.5	-19.7994
1075.000000	87.6	-20.1072
1090.000000	87.7	-20.4266
1106.000000	87.7	-20.7855
1120.000000	87.8	-21.1178
1138.000000	87.9	-21.5713
1150.000000	88.0	-21.8898
1172.000000	88.1	-22.5049
1180.000000	88.2	-22.7379
1206.000000	88.4	-23.5260
1220.000000	88.5	-23.9681
1241.000000	88.6	-24.6517
1250.000000	88.7	-24.9513
1265.000000	88.8	-25.4583
1280.000000	88.9	-25.9737
1315.000000	89.2	-27.1967
1320.000000	89.2	-27.3723
1340.000000	89.3	-28.0733
1360.000000	89.5	-28.7702
1380.000000	89.6	-29.4609
1400.000000	89.8	-30.1450
1430.000000	90.0	-31.1599
1450.000000	90.2	-31.8314
1475.000000	90.4	-32.6709
1500.000000	90.6	-33.5226
1525.000000	90.8	-34.3884
1550.000000	91.0	-35.2575
1575.000000	91.2	-36.1286
1600.000000	91.4	-37.0091
1625.000000	91.6	-37.9056
1650.000000	91.8	-38.8232
1675.000000	92.0	-39.7653
1700.000000	92.2	-40.7344
1725.000000	92.4	-41.7322
1750.000000	92.6	-42.7618
1775.000000	92.9	-43.8288
1800.000000	93.1	-44.9370
1825.000000	93.3	-46.0860
1850.000000	93.5	-47.2751
1875.000000	93.7	-48.5056
1900.000000	93.9	-49.7780
1925.000000	94.1	-51.0906
1950.000000	94.2	-52.4404
1975.000000	94.4	-53.8237
2000.000000	94.6	-55.2355
2030.000000	94.8	-56.9541
2060.000000	94.9	-58.6812
2090.000000	95.1	-60.3964
2120.000000	95.2	-62.0831
2140.000000	95.3	-63.1871
2180.000000	95.5	-65.3408
2200.000000	95.5	-66.3864
2240.000000	95.7	-68.4109
2270.000000	95.8	-69.8997
2300.000000	95.9	-71.4272
2330.000000	96.0	-73.0593
2360.000000	96.1	-74.8260
2400.000000	96.2	-77.3425
2430.000000	96.3	-79.2698
2470.000000	96.3	-81.7812
2500.000000	96.3	-83.5770
2540.000000	96.3	-85.8276
2580.000000	96.2	-87.9070
2620.000000	96.1	-89.8170
2650.000000	96.0	-91.1413
2690.000000	95.9	-92.7688
2720.000000	95.8	-93.8901
2760.000000	95.7	-95.2585
2800.000000	95.6	-96.4888
2850.000000	95.4	-97.8463
2900.000000	95.2	-99.0189
2950.000000	95.1	-100.0149
3000.000000	94.9	-100.8374
3040.000000	94.7	-101.3756
3070.000000	94.6	-101.7140
3110.000000	94.5	-102.0846
3150.000000	94.4	-102.3695
3200.000000	94.2	-102.6116
3250.000000	94.1	-102.7323
3300.000000	93.9	-102.7404
3350.000000	93.8	-102.6494
3400.000000	93.7	-102.4779
3450.000000	93.6	-102.2481
3500.000000	93.5	-101.9838
3550.000000	93.4	-101.7092
3600.000000	93.3	-101.4465
3650.000000	93.2	-101.2136
3700.000000	93.2	-101.0187
3750.000000	93.1	-100.8566
3820.000000	92.9	-100.6494
3870.000000	92.8	-100.4758
3950.000000	92.6	-100.0363
4000.000000	92.4	-99.5656
4060.000000	92.1	-98.6630
4120.000000	91.9	-97.2408
4180.000000	91.6	-95.2014
4250.000000	91.4	-92.1155
4310.000000	91.4	-89.1229
4370.000000	91.5	-86.1570
4440.000000	91.8	-83.1620
4500.000000	92.1	-81.2556
4550.000000	92.4	-80.2181
4620.000000	92.8	-79.6335
4680.000000	93.1	-79.9249
4750.000000	93.4	-81.1676
4820.000000	93.6	-83.3394
4870.000000	93.7	-85.3844
4940.000000	93.6	-88.6818
5000.000000	93.4	-91.5089
5080.000000	92.8	-94.3484
5150.000000	92.1	-95.0671
5220.000000	91.2	-93.5949
5300.000000	90.3	-89.3416
5380.000000	89.6	-83.2826
5450.000000	89.4	-77.5454
5520.000000	89.4	-72.1874
5600.000000	89.6	-67.0533
5700.000000	90.1	-62.2892
5800.000000	90.5	-59.0283
5900.000000	90.8	-56.7397
6000.000000	91.1	-54.9573
6080.000000	91.2	-53.6674
6150.000000	91.3	-52.5358
6220.000000	91.4	-51.3442
6300.000000	91.5	-49.8627
6400.000000	91.5	-47.7880
6500.000000	91.6	-45.4518
6600.000000	91.7	-42.8743
6700.000000	91.8	-40.0992
6800.000000	92.0	-37.1892
6900.000000	92.3	-34.2251
7000.000000	92.6	-31.3074
7100.000000	93.0	-28.5575
7200.000000	93.4	-26.1133
7300.000000	93.9	-24.1237
7400.000000	94.5	-22.7429
7500.000000	95.0	-22.1180
7620.000000	95.7	-22.5249
7750.000000	96.2	-24.4446
7880.000000	96.6	-27.6193
8000.000000	96.6	-31.0195
8120.000000	96.4	-34.0427
8250.000000	95.9	-36.0502
8380.000000	95.2	-36.2272
8500.000000	94.6	-34.7082
8620.000000	94.0	-31.8003
8750.000000	93.4	-27.5090
8850.000000	93.0	-23.7166
9000.000000	92.7	-17.7045
9120.000000	92.5	-12.8385
9250.000000	92.3	-7.5056
9380.000000	92.1	-1.9271
9500.000000	92.1	3.6053
9620.000000	92.0	9.5551
9750.000000	92.1	16.3751
9880.000000	92.4	23.3726
10000.000000	92.8	29.7517
10150.000000	93.6	37.2187
10300.000000	94.6	43.5435
10440.000000	95.7	47.7164
10600.000000	97.0	49.4504
10750.000000	98.0	47.3744
10900.000000	98.6	41.8149
11060.000000	98.7	33.7360
11200.000000	98.2	27.1711
11380.000000	96.8	22.3633
11500.000000	95.7	22.1212
11720.000000	93.3	27.1798
11800.000000	92.4	30.3752
12060.000000	89.8	43.8666
12200.000000	88.6	52.3964
12410.000000	87.0	66.1537
12500.000000	86.4	72.3015
12650.000000	85.5	82.7982
12800.000000	84.7	93.5482
13150.000000	83.1	119.3570
13200.000000	82.9	123.1085
13400.000000	82.2	138.2356
13600.000000	81.7	153.5166
13800.000000	81.2	168.9138
14000.000000	80.7	-175.5732
14300.000000	80.3	-151.9662
14500.000000	80.1	-135.8555
14750.000000	80.0	-115.1404
15000.000000	80.3	-93.8973
15250.000000	81.1	-72.7763
15500.000000	82.4	-53.0597
15750.000000	83.8	-36.0775
16000.000000	85.3	-21.8284
16250.000000	86.9	-9.1353
16500.000000	88.7	2.2070
16750.000000	90.5	10.7476
17000.000000	92.2	14.7262
17250.000000	93.3	13.7679
17500.000000	93.8	9.6265
17750.000000	93.6	5.0396
18000.000000	92.9	1.9742
18250.000000	91.8	1.5532
18500.000000	90.3	4.6401
18750.000000	88.7	10.7632
19000.000000	87.2	17.3588
19250.000000	85.8	22.3139
19500.000000	84.4	25.9440
19750.000000	82.9	29.0665
