* Measurement data measured by REW V5.20
* Source: Microphone (Sound Blaster Play! 3), MICROPHONE (Master Volume), L, volume: 0.250
* Format: 256k Log Swept Sine, 1 sweep at -12.0 dBFS with no timing reference
* Dated: Jan 4, 2022 3:49:19 PM
* REW Settings:
*  C-weighting compensation: Off
*  Target level: 75.0 dB
* Note: 64Audio Trio L
* Measurement: 64Audio Trio L
* Smoothing: 1/12 octave
* Frequency Step: 1/48 octave
* Start Frequency: 20.000 Hz
*
* Freq(Hz)	SPL(dB)	Phase(degrees)
20.000000	96.3	-0.3893
20.299999	96.4	-2.4347
20.600000	96.4	-4.4542
20.900000	96.5	-6.4501
21.200001	96.5	-8.4224
21.400000	96.5	-9.7230
21.799999	96.6	-12.2888
22.000000	96.6	-13.5532
22.400000	96.7	-16.0452
22.700001	96.7	-17.8838
23.000000	96.7	-19.6983
23.299999	96.8	-21.4899
23.600000	96.8	-23.2585
24.000000	96.8	-25.5797
24.299999	96.8	-27.2914
24.700001	96.9	-29.5338
25.000000	96.9	-31.1869
25.400000	96.9	-33.3572
25.799999	96.9	-35.4951
26.200001	97.0	-37.6057
26.500000	97.0	-39.1711
26.900000	97.0	-41.2328
27.200001	97.0	-42.7574
27.600000	97.0	-44.7585
28.000000	97.0	-46.7227
28.500000	97.0	-49.1279
29.000000	97.0	-51.4825
29.500000	97.0	-53.7916
30.000000	97.0	-56.0606
30.400000	97.0	-57.8503
30.700001	97.0	-59.1783
31.100000	97.0	-60.9292
31.500000	97.0	-62.6544
32.000000	97.0	-64.7703
32.500000	97.0	-66.8392
33.000000	97.0	-68.8662
33.500000	97.0	-70.8593
34.000000	97.0	-72.8238
34.500000	97.0	-74.7598
35.000000	96.9	-76.6647
35.500000	96.9	-78.5388
36.000000	96.9	-80.3863
36.500000	96.9	-82.2123
37.000000	96.9	-84.0176
37.500000	96.9	-85.7971
38.200001	96.8	-88.2299
38.700001	96.8	-89.9192
39.500000	96.8	-92.5408
40.000000	96.7	-94.1313
40.599998	96.7	-95.9911
41.200001	96.7	-97.7965
41.799999	96.7	-99.5538
42.500000	96.6	-101.5645
43.099998	96.6	-103.2739
43.700001	96.6	-104.9774
44.400002	96.5	-106.9460
45.000000	96.5	-108.6008
45.500000	96.4	-109.9510
46.200001	96.4	-111.8055
46.799999	96.3	-113.3820
47.500000	96.3	-115.2324
48.200001	96.2	-117.1075
48.700001	96.2	-118.4587
49.400002	96.2	-120.3522
50.000000	96.1	-121.9617
50.799999	96.1	-124.0757
51.500000	96.1	-125.8940
52.200001	96.1	-127.6721
53.000000	96.0	-129.6192
53.799999	96.0	-131.4423
54.500000	95.9	-132.9366
55.200001	95.9	-134.3571
56.000000	95.8	-135.9255
57.000000	95.7	-137.8499
58.000000	95.7	-139.7303
59.000000	95.6	-141.5493
60.000000	95.5	-143.3385
60.799999	95.4	-144.7616
61.500000	95.3	-145.9943
62.200001	95.3	-147.2152
63.000000	95.2	-148.6108
64.000000	95.2	-150.3861
65.000000	95.1	-152.2103
66.000000	95.0	-154.0557
67.000000	94.9	-155.8763
68.000000	94.9	-157.6384
69.000000	94.8	-159.3164
70.000000	94.8	-160.9161
71.000000	94.7	-162.4586
72.000000	94.7	-163.9131
73.000000	94.6	-165.2500
74.000000	94.6	-166.5126
75.000000	94.5	-167.7733
76.199997	94.5	-169.3486
77.500000	94.4	-171.0933
78.800003	94.3	-172.8226
80.000000	94.3	-174.4253
81.199997	94.2	-176.0295
82.500000	94.2	-177.7467
83.800003	94.1	-179.3879
85.000000	94.0	179.1959
86.199997	93.9	177.8490
87.500000	93.8	176.4064
88.500000	93.8	175.3044
90.000000	93.7	173.7171
91.199997	93.6	172.5112
92.500000	93.5	171.2077
93.800003	93.5	169.8448
95.000000	93.4	168.5531
96.199997	93.4	167.2845
97.500000	93.3	165.9658
98.800003	93.2	164.6902
100.000000	93.1	163.5330
101.500000	93.0	162.1126
103.000000	93.0	160.7440
104.400002	92.9	159.5297
106.000000	92.8	158.1855
107.500000	92.7	156.9148
109.000000	92.7	155.6157
110.599998	92.6	154.2372
112.000000	92.5	153.0960
113.800003	92.4	151.7720
115.000000	92.3	150.9727
117.199997	92.1	149.6293
118.000000	92.1	149.1710
120.599998	91.9	147.5069
122.000000	91.9	146.2537
124.099998	91.9	144.2083
125.000000	91.9	143.4457
126.500000	91.8	142.3754
128.000000	91.8	141.4493
131.500000	91.6	139.3178
132.000000	91.6	139.0011
134.000000	91.5	137.7351
136.000000	91.4	136.5153
138.000000	91.4	135.3371
140.000000	91.3	134.1633
143.000000	91.2	132.4141
145.000000	91.1	131.2864
147.500000	91.0	129.9155
150.000000	90.9	128.5756
152.500000	90.8	127.2864
155.000000	90.7	126.0513
157.500000	90.6	124.8304
160.000000	90.6	123.5895
162.500000	90.5	122.3408
165.000000	90.4	121.1000
167.500000	90.3	119.9054
170.000000	90.3	118.7747
172.500000	90.2	117.6650
175.000000	90.1	116.5646
177.500000	90.0	115.4996
180.000000	89.9	114.4694
182.500000	89.8	113.4377
185.000000	89.8	112.3434
187.500000	89.7	111.1506
190.000000	89.6	109.9382
192.500000	89.5	108.8997
195.000000	89.5	108.1202
197.500000	89.4	107.4539
200.000000	89.4	106.7410
203.000000	89.3	105.7844
206.000000	89.2	104.7889
209.000000	89.2	103.7959
212.000000	89.1	102.8096
214.000000	89.1	102.1597
218.000000	89.0	100.8802
220.000000	89.0	100.2440
224.000000	88.9	98.9611
227.000000	88.8	97.9877
230.000000	88.8	97.0153
233.000000	88.7	96.0514
236.000000	88.7	95.0922
240.000000	88.6	93.7986
243.000000	88.6	92.8176
247.000000	88.5	91.5790
250.000000	88.5	90.7552
254.000000	88.4	89.7340
258.000000	88.3	88.7068
262.000000	88.3	87.6649
265.000000	88.2	86.8847
269.000000	88.2	85.8554
272.000000	88.1	85.0939
276.000000	88.1	84.0929
280.000000	88.0	83.1089
285.000000	88.0	81.9048
290.000000	87.9	80.7299
295.000000	87.9	79.5779
300.000000	87.8	78.4470
304.000000	87.8	77.5596
307.000000	87.8	76.9033
311.000000	87.7	76.0401
315.000000	87.7	75.1909
320.000000	87.7	74.1471
325.000000	87.6	73.1198
330.000000	87.6	72.1088
335.000000	87.6	71.1133
340.000000	87.6	70.1332
345.000000	87.5	69.1671
350.000000	87.5	68.2148
355.000000	87.5	67.2796
360.000000	87.5	66.3604
365.000000	87.5	65.4533
370.000000	87.4	64.5554
375.000000	87.4	63.6663
382.000000	87.4	62.4392
387.000000	87.4	61.5777
395.000000	87.4	60.2271
400.000000	87.4	59.3964
406.000000	87.4	58.4090
412.000000	87.4	57.4290
418.000000	87.4	56.4556
425.000000	87.5	55.3311
431.000000	87.5	54.3784
437.000000	87.5	53.4338
444.000000	87.5	52.3391
450.000000	87.5	51.4061
455.000000	87.6	50.6310
462.000000	87.6	49.5482
468.000000	87.6	48.6229
475.000000	87.7	47.5468
482.000000	87.7	46.4724
487.000000	87.7	45.7042
494.000000	87.8	44.6267
500.000000	87.8	43.7029
508.000000	87.9	42.4715
515.000000	87.9	41.3922
522.000000	88.0	40.3082
530.000000	88.0	39.0599
538.000000	88.1	37.7989
545.000000	88.2	36.6835
552.000000	88.2	35.5578
560.000000	88.3	34.2598
570.000000	88.4	32.6177
580.000000	88.4	30.9504
590.000000	88.5	29.2547
600.000000	88.6	27.5261
608.000000	88.7	26.1209
615.000000	88.7	24.8776
622.000000	88.8	23.6235
630.000000	88.8	22.1802
640.000000	88.9	20.3643
650.000000	88.9	18.5363
660.000000	89.0	16.6965
670.000000	89.0	14.8522
680.000000	89.0	13.0138
690.000000	89.0	11.1928
700.000000	89.1	9.4012
710.000000	89.0	7.6506
720.000000	89.0	5.9498
730.000000	89.0	4.3042
740.000000	89.0	2.7161
750.000000	89.0	1.1844
762.000000	88.9	-0.5882
775.000000	88.9	-2.4496
788.000000	88.9	-4.2787
800.000000	88.8	-5.9521
812.000000	88.8	-7.6039
825.000000	88.7	-9.3484
838.000000	88.7	-11.0190
850.000000	88.6	-12.4716
862.000000	88.5	-13.8230
875.000000	88.4	-15.1667
885.000000	88.3	-16.1170
900.000000	88.2	-17.4169
912.000000	88.2	-18.3586
925.000000	88.1	-19.2901
938.000000	88.0	-20.1392
950.000000	87.9	-20.8591
962.000000	87.9	-21.5276
975.000000	87.8	-22.2039
988.000000	87.8	-22.8393
1000.000000	87.7	-23.3961
1015.000000	87.7	-24.0570
1030.000000	87.6	-24.6810
1044.000000	87.6	-25.2279
1060.000000	87.6	-25.8022
1075.000000	87.5	-26.2797
1090.000000	87.5	-26.6832
1106.000000	87.4	-27.0177
1120.000000	87.4	-27.2218
1138.000000	87.4	-27.3580
1150.000000	87.4	-27.3702
1172.000000	87.4	-27.2472
1180.000000	87.4	-27.1640
1206.000000	87.4	-26.8013
1220.000000	87.5	-26.5743
1241.000000	87.6	-26.2341
1250.000000	87.7	-26.0989
1265.000000	87.8	-25.9005
1280.000000	87.9	-25.7457
1315.000000	88.2	-25.5828
1320.000000	88.3	-25.5833
1340.000000	88.5	-25.6467
1360.000000	88.7	-25.8065
1380.000000	88.9	-26.0568
1400.000000	89.1	-26.3886
1430.000000	89.5	-27.0150
1450.000000	89.7	-27.5031
1475.000000	89.9	-28.1807
1500.000000	90.2	-28.9234
1525.000000	90.5	-29.7202
1550.000000	90.7	-30.5623
1575.000000	91.0	-31.4464
1600.000000	91.3	-32.3690
1625.000000	91.5	-33.3295
1650.000000	91.8	-34.3308
1675.000000	92.0	-35.3769
1700.000000	92.3	-36.4681
1725.000000	92.5	-37.5990
1750.000000	92.8	-38.7653
1775.000000	93.0	-39.9678
1800.000000	93.3	-41.2101
1825.000000	93.5	-42.4959
1850.000000	93.7	-43.8255
1875.000000	93.9	-45.1968
1900.000000	94.1	-46.6073
1925.000000	94.3	-48.0546
1950.000000	94.5	-49.5359
1975.000000	94.7	-51.0472
2000.000000	94.9	-52.5820
2030.000000	95.1	-54.4412
2060.000000	95.2	-56.2988
2090.000000	95.4	-58.1279
2120.000000	95.5	-59.8978
2140.000000	95.6	-61.0270
2180.000000	95.7	-63.1224
2200.000000	95.8	-64.0837
2240.000000	96.0	-65.9019
2270.000000	96.1	-67.2935
2300.000000	96.3	-68.8382
2330.000000	96.5	-70.6041
2360.000000	96.6	-72.5765
2400.000000	96.7	-75.3846
2430.000000	96.7	-77.5012
2470.000000	96.8	-80.2148
2500.000000	96.7	-82.1332
2540.000000	96.7	-84.5187
2580.000000	96.6	-86.7059
2620.000000	96.5	-88.7046
2650.000000	96.4	-90.0888
2690.000000	96.3	-91.7938
2720.000000	96.2	-92.9735
2760.000000	96.1	-94.4200
2800.000000	96.0	-95.7275
2850.000000	95.8	-97.1755
2900.000000	95.6	-98.4321
2950.000000	95.4	-99.5137
3000.000000	95.3	-100.4315
3040.000000	95.1	-101.0531
3070.000000	95.0	-101.4556
3110.000000	94.9	-101.9109
3150.000000	94.8	-102.2788
3200.000000	94.6	-102.6269
3250.000000	94.4	-102.8680
3300.000000	94.3	-103.0216
3350.000000	94.2	-103.1078
3400.000000	94.0	-103.1456
3450.000000	93.9	-103.1516
3500.000000	93.8	-103.1383
3550.000000	93.7	-103.1121
3600.000000	93.5	-103.0652
3650.000000	93.4	-102.9705
3700.000000	93.2	-102.7871
3750.000000	93.1	-102.4746
3820.000000	92.8	-101.7751
3870.000000	92.6	-101.0795
3950.000000	92.4	-99.6213
4000.000000	92.2	-98.4974
4060.000000	92.1	-96.9679
4120.000000	92.0	-95.3094
4180.000000	91.9	-93.5958
4250.000000	91.8	-91.5817
4310.000000	91.8	-89.8503
4370.000000	91.8	-88.1077
4440.000000	91.9	-86.0757
4500.000000	92.0	-84.4253
4550.000000	92.2	-83.2653
4620.000000	92.4	-82.3059
4680.000000	92.7	-82.3739
4750.000000	92.9	-83.6348
4820.000000	93.0	-86.0042
4870.000000	93.0	-88.1053
4940.000000	92.6	-91.0009
5000.000000	92.2	-92.7573
5080.000000	91.3	-92.9586
5150.000000	90.4	-90.5410
5220.000000	89.6	-85.8617
5300.000000	89.0	-78.8197
5380.000000	88.8	-71.5013
5450.000000	89.0	-65.8348
5520.000000	89.3	-61.2441
5600.000000	89.8	-57.3187
5700.000000	90.3	-53.9897
5800.000000	90.7	-51.8129
5900.000000	91.0	-50.2571
6000.000000	91.2	-48.9514
6080.000000	91.3	-47.9175
6150.000000	91.4	-46.9437
6220.000000	91.4	-45.8632
6300.000000	91.5	-44.4670
6400.000000	91.5	-42.4576
6500.000000	91.5	-40.1582
6600.000000	91.6	-37.5967
6700.000000	91.7	-34.8185
6800.000000	91.8	-31.8832
6900.000000	92.0	-28.8655
7000.000000	92.3	-25.8583
7100.000000	92.6	-22.9712
7200.000000	93.0	-20.3252
7300.000000	93.4	-18.0490
7400.000000	93.9	-16.2786
7500.000000	94.5	-15.1538
7620.000000	95.1	-14.8346
7750.000000	95.7	-15.8716
7880.000000	96.1	-18.1667
8000.000000	96.2	-20.8927
8120.000000	96.1	-23.4959
8250.000000	95.8	-25.3858
8380.000000	95.3	-25.7543
8500.000000	94.7	-24.6374
8620.000000	94.3	-22.3615
8750.000000	93.8	-19.0969
8850.000000	93.6	-16.3695
9000.000000	93.2	-12.2493
9120.000000	93.0	-8.8278
9250.000000	92.6	-4.6283
9380.000000	92.3	0.3932
9500.000000	92.0	5.8146
9620.000000	91.9	11.8593
9750.000000	91.9	18.8663
9880.000000	92.0	26.0728
10000.000000	92.4	32.6641
10150.000000	93.0	40.4739
10300.000000	93.9	47.3359
10440.000000	94.9	52.3245
10600.000000	96.1	55.5116
10750.000000	97.2	55.2588
10900.000000	98.0	51.5406
11060.000000	98.3	44.6382
11200.000000	98.1	37.9797
11380.000000	97.1	31.7528
11500.000000	96.1	30.2052
11720.000000	93.8	33.0294
11800.000000	93.0	35.5676
12060.000000	90.3	47.5336
12200.000000	89.0	55.5504
12410.000000	87.3	68.7986
12500.000000	86.7	74.7974
12650.000000	85.7	85.1146
12800.000000	84.9	95.7533
13150.000000	83.2	121.4905
13200.000000	83.0	125.2489
13400.000000	82.3	140.4431
13600.000000	81.7	155.8553
13800.000000	81.2	171.4428
14000.000000	80.8	-172.8252
14300.000000	80.3	-148.9973
14500.000000	80.2	-132.9684
14750.000000	80.3	-112.7290
15000.000000	80.6	-92.1918
15250.000000	81.4	-71.5583
15500.000000	82.6	-51.8585
15750.000000	84.2	-34.7521
16000.000000	85.9	-20.9667
16250.000000	87.5	-9.7109
16500.000000	89.2	-0.6132
16750.000000	90.9	5.1805
17000.000000	92.2	6.5021
17250.000000	92.9	4.1030
17500.000000	92.9	0.5337
17750.000000	92.5	-2.1578
18000.000000	91.8	-3.8668
18250.000000	90.9	-5.2223
18500.000000	89.6	-5.5969
18750.000000	87.8	-2.7892
19000.000000	85.5	5.4614
19250.000000	82.9	19.7956
19500.000000	80.2	38.0889
19750.000000	78.1	55.3464
