* Measurement data measured by REW V5.20.11
* Source: Mic in at front panel (Pink) (Realtek(R) Audio), MICROPHONE (Master Volume), L, volume: 0.250
* Format: 256k Log Swept Sine, 1 sweep at -12.0 dBFS with no timing reference
* Dated: Aug 16, 2022 12:58:48 PM
* REW Settings:
*  C-weighting compensation: Off
*  Target level: 75.0 dB
* Note: Dioko Tape on Vent
* Measurement: KZ EDX Ultra Aug 16
* Smoothing: 1/12 octave
* Frequency Step: 1/48 octave
* Start Frequency: 20.000 Hz
*
* Freq(Hz)	SPL(dB)	Phase(degrees)
20.000000	108.881	171.8787
20.299999	108.826	171.3280
20.600000	108.767	170.7991
20.900000	108.706	170.2892
21.200001	108.646	169.7950
21.400000	108.608	169.4727
21.799999	108.536	168.8435
22.000000	108.503	168.5354
22.400000	108.442	167.9302
22.700001	108.398	167.4844
23.000000	108.356	167.0446
23.299999	108.313	166.6114
23.600000	108.270	166.1860
24.000000	108.212	165.6350
24.299999	108.167	165.2369
24.700001	108.103	164.7283
25.000000	108.053	164.3631
25.400000	107.985	163.8947
25.799999	107.918	163.4427
26.200001	107.851	163.0031
26.500000	107.801	162.6805
26.900000	107.733	162.2596
27.200001	107.681	161.9510
27.600000	107.609	161.5485
28.000000	107.538	161.1557
28.500000	107.451	160.6783
29.000000	107.367	160.2180
29.500000	107.286	159.7780
30.000000	107.206	159.3593
30.400000	107.144	159.0379
30.700001	107.100	158.8030
31.100000	107.043	158.4957
31.500000	106.986	158.1935
32.000000	106.913	157.8234
32.500000	106.837	157.4641
33.000000	106.760	157.1185
33.500000	106.685	156.7864
34.000000	106.611	156.4664
34.500000	106.540	156.1584
35.000000	106.470	155.8632
35.500000	106.402	155.5804
36.000000	106.338	155.3089
36.500000	106.275	155.0504
37.000000	106.210	154.8107
37.500000	106.143	154.5937
38.200001	106.044	154.3190
38.700001	105.972	154.1287
39.500000	105.854	153.8167
40.000000	105.781	153.6221
40.599998	105.699	153.3962
41.200001	105.622	153.1780
41.799999	105.547	152.9667
42.500000	105.463	152.7374
43.099998	105.393	152.5654
43.700001	105.325	152.4163
44.400002	105.246	152.2616
45.000000	105.179	152.1366
45.500000	105.124	152.0339
46.200001	105.046	151.8896
46.799999	104.979	151.7658
47.500000	104.897	151.6253
48.200001	104.812	151.4921
48.700001	104.749	151.4016
49.400002	104.662	151.2815
50.000000	104.589	151.1871
50.799999	104.500	151.0783
51.500000	104.427	151.0029
52.200001	104.356	150.9482
53.000000	104.276	150.9074
53.799999	104.200	150.8768
54.500000	104.137	150.8495
55.200001	104.078	150.8208
56.000000	104.012	150.7849
57.000000	103.930	150.7263
58.000000	103.843	150.6529
59.000000	103.750	150.5833
60.000000	103.654	150.5445
60.799999	103.579	150.5413
61.500000	103.515	150.5494
62.200001	103.456	150.5601
63.000000	103.393	150.5755
64.000000	103.318	150.6053
65.000000	103.247	150.6455
66.000000	103.179	150.6884
67.000000	103.113	150.7301
68.000000	103.050	150.7657
69.000000	102.985	150.7903
70.000000	102.915	150.8076
71.000000	102.840	150.8222
72.000000	102.764	150.8331
73.000000	102.691	150.8403
74.000000	102.620	150.8566
75.000000	102.552	150.9083
76.199997	102.478	151.0184
77.500000	102.407	151.1231
78.800003	102.335	151.1787
80.000000	102.264	151.2180
81.199997	102.189	151.2539
82.500000	102.105	151.2824
83.800003	102.018	151.3179
85.000000	101.935	151.3869
86.199997	101.852	151.5162
87.500000	101.761	151.7417
88.500000	101.693	151.9776
90.000000	101.601	152.4073
91.199997	101.538	152.7719
92.500000	101.482	153.1403
93.800003	101.438	153.4544
95.000000	101.410	153.6624
96.199997	101.386	153.7568
97.500000	101.350	153.7638
98.800003	101.300	153.7654
100.000000	101.243	153.8225
101.500000	101.169	153.9835
103.000000	101.097	154.2253
104.400002	101.034	154.5154
106.000000	100.972	154.9111
107.500000	100.927	155.2998
109.000000	100.894	155.6603
110.599998	100.869	155.9760
112.000000	100.852	156.1516
113.800003	100.826	156.2058
115.000000	100.802	156.1590
117.199997	100.749	156.0109
118.000000	100.726	155.9676
120.599998	100.639	156.0900
122.000000	100.594	156.3784
124.099998	100.541	156.9081
125.000000	100.522	157.1114
126.500000	100.491	157.3878
128.000000	100.460	157.5945
131.500000	100.380	157.9724
132.000000	100.368	158.0271
134.000000	100.321	158.2449
136.000000	100.279	158.4275
138.000000	100.239	158.5613
140.000000	100.198	158.6888
143.000000	100.133	158.9287
145.000000	100.089	159.0811
147.500000	100.034	159.2210
150.000000	99.979	159.3566
152.500000	99.919	159.5961
155.000000	99.861	159.9688
157.500000	99.820	160.3588
160.000000	99.792	160.6823
162.500000	99.766	160.9546
165.000000	99.732	161.1985
167.500000	99.678	161.4334
170.000000	99.605	161.6920
172.500000	99.522	161.9872
175.000000	99.442	162.2956
177.500000	99.372	162.5898
180.000000	99.321	162.8646
182.500000	99.291	163.1263
185.000000	99.277	163.3775
187.500000	99.271	163.6179
190.000000	99.263	163.8513
192.500000	99.252	164.0843
195.000000	99.235	164.3239
197.500000	99.211	164.5760
200.000000	99.181	164.8444
203.000000	99.146	165.1820
206.000000	99.117	165.5121
209.000000	99.087	165.8107
212.000000	99.052	166.0837
214.000000	99.026	166.2668
218.000000	98.971	166.6761
220.000000	98.946	166.9039
224.000000	98.907	167.3651
227.000000	98.885	167.6871
230.000000	98.867	167.9857
233.000000	98.849	168.2693
236.000000	98.830	168.5415
240.000000	98.802	168.8863
243.000000	98.778	169.1386
247.000000	98.742	169.4911
250.000000	98.715	169.7849
254.000000	98.685	170.2238
258.000000	98.668	170.6755
262.000000	98.657	171.0696
265.000000	98.647	171.3234
269.000000	98.628	171.6512
272.000000	98.611	171.9137
276.000000	98.590	172.2900
280.000000	98.575	172.6799
285.000000	98.569	173.1465
290.000000	98.575	173.5237
295.000000	98.574	173.7998
300.000000	98.562	174.0635
304.000000	98.550	174.3047
307.000000	98.542	174.4994
311.000000	98.530	174.7632
315.000000	98.515	175.0255
320.000000	98.493	175.3670
325.000000	98.473	175.7422
330.000000	98.457	176.1346
335.000000	98.445	176.5163
340.000000	98.432	176.8729
345.000000	98.419	177.2125
350.000000	98.409	177.5522
355.000000	98.403	177.8977
360.000000	98.396	178.2457
365.000000	98.387	178.5929
370.000000	98.376	178.9389
375.000000	98.367	179.2845
382.000000	98.358	179.7677
387.000000	98.354	-179.8887
395.000000	98.349	-179.3419
400.000000	98.346	-179.0038
406.000000	98.342	-178.6090
412.000000	98.337	-178.2281
418.000000	98.331	-177.8445
425.000000	98.328	-177.3704
431.000000	98.333	-176.9490
437.000000	98.342	-176.5388
444.000000	98.356	-176.0911
450.000000	98.371	-175.7486
455.000000	98.384	-175.5085
462.000000	98.395	-175.2277
468.000000	98.395	-174.9848
475.000000	98.393	-174.6588
482.000000	98.392	-174.3062
487.000000	98.389	-174.0526
494.000000	98.383	-173.6800
500.000000	98.379	-173.3311
508.000000	98.381	-172.8563
515.000000	98.386	-172.4623
522.000000	98.388	-172.0787
530.000000	98.389	-171.6229
538.000000	98.393	-171.1472
545.000000	98.400	-170.7308
552.000000	98.409	-170.3183
560.000000	98.422	-169.8606
570.000000	98.439	-169.3173
580.000000	98.452	-168.7791
590.000000	98.461	-168.2277
600.000000	98.471	-167.6526
608.000000	98.485	-167.1874
615.000000	98.499	-166.7866
622.000000	98.513	-166.3814
630.000000	98.528	-165.8934
640.000000	98.552	-165.2531
650.000000	98.584	-164.6089
660.000000	98.628	-163.9881
670.000000	98.683	-163.4480
680.000000	98.734	-162.9926
690.000000	98.774	-162.5622
700.000000	98.807	-162.1102
710.000000	98.839	-161.6275
720.000000	98.874	-161.1341
730.000000	98.911	-160.6409
740.000000	98.949	-160.1446
750.000000	98.988	-159.6423
762.000000	99.035	-159.0315
775.000000	99.091	-158.3645
788.000000	99.152	-157.6968
800.000000	99.215	-157.0689
812.000000	99.287	-156.4326
825.000000	99.378	-155.7947
838.000000	99.473	-155.2718
850.000000	99.553	-154.8641
862.000000	99.623	-154.4706
875.000000	99.695	-154.0273
885.000000	99.750	-153.6732
900.000000	99.837	-153.1411
912.000000	99.908	-152.7144
925.000000	99.988	-152.2549
938.000000	100.074	-151.8180
950.000000	100.154	-151.4463
962.000000	100.234	-151.0983
975.000000	100.322	-150.7336
988.000000	100.410	-150.3734
1000.000000	100.491	-150.0375
1015.000000	100.595	-149.5971
1030.000000	100.709	-149.1545
1044.000000	100.826	-148.8004
1060.000000	100.965	-148.5216
1075.000000	101.089	-148.3519
1090.000000	101.208	-148.2168
1106.000000	101.333	-148.0897
1120.000000	101.441	-147.9893
1138.000000	101.576	-147.8685
1150.000000	101.663	-147.7903
1172.000000	101.820	-147.6452
1180.000000	101.879	-147.5916
1206.000000	102.086	-147.4828
1220.000000	102.202	-147.5189
1241.000000	102.365	-147.6816
1250.000000	102.428	-147.7678
1265.000000	102.527	-147.9109
1280.000000	102.619	-148.0440
1315.000000	102.822	-148.3061
1320.000000	102.850	-148.3418
1340.000000	102.963	-148.4860
1360.000000	103.073	-148.6134
1380.000000	103.180	-148.6879
1400.000000	103.294	-148.6852
1430.000000	103.501	-148.6414
1450.000000	103.661	-148.6955
1475.000000	103.874	-148.8789
1500.000000	104.102	-149.1738
1525.000000	104.341	-149.5558
1550.000000	104.582	-149.9770
1575.000000	104.813	-150.4130
1600.000000	105.005	-150.9242
1625.000000	105.116	-151.5464
1650.000000	105.138	-152.2279
1675.000000	105.101	-152.9132
1700.000000	105.056	-153.5837
1725.000000	105.046	-154.2442
1750.000000	105.091	-154.8869
1775.000000	105.193	-155.5044
1800.000000	105.344	-156.1483
1825.000000	105.523	-156.9198
1850.000000	105.705	-157.8582
1875.000000	105.879	-158.9256
1900.000000	106.043	-160.0670
1925.000000	106.200	-161.2443
1950.000000	106.357	-162.4608
1975.000000	106.520	-163.7817
2000.000000	106.687	-165.2944
2030.000000	106.880	-167.4389
2060.000000	107.052	-170.0024
2090.000000	107.187	-173.0720
2120.000000	107.256	-176.7343
2140.000000	107.245	-179.5047
2180.000000	107.013	174.4437
2200.000000	106.754	171.4980
2240.000000	105.851	167.6625
2270.000000	104.889	168.5011
2300.000000	103.979	172.7224
2330.000000	103.439	178.2711
2360.000000	103.298	-176.9567
2400.000000	103.432	-172.9846
2430.000000	103.610	-171.4243
2470.000000	103.863	-170.3935
2500.000000	104.048	-170.0888
2540.000000	104.274	-170.0972
2580.000000	104.470	-170.4004
2620.000000	104.645	-170.8127
2650.000000	104.777	-171.1357
2690.000000	104.975	-171.6255
2720.000000	105.145	-172.1176
2760.000000	105.393	-173.0923
2800.000000	105.643	-174.5521
2850.000000	105.910	-177.0628
2900.000000	106.086	179.8177
2950.000000	106.137	176.3158
3000.000000	106.026	172.6459
3040.000000	105.748	170.0136
3070.000000	105.376	168.8352
3110.000000	104.669	169.3425
3150.000000	103.886	172.2648
3200.000000	103.131	176.7630
3250.000000	102.693	179.6968
3300.000000	102.454	-178.6378
3350.000000	102.367	-177.2880
3400.000000	102.389	-176.2294
3450.000000	102.442	-175.6055
3500.000000	102.482	-175.3271
3550.000000	102.517	-175.3436
3600.000000	102.555	-175.8155
3650.000000	102.565	-176.9693
3700.000000	102.476	-178.7729
3750.000000	102.209	179.4219
3820.000000	101.517	179.5457
3870.000000	101.041	-177.0092
3950.000000	101.033	-169.0890
4000.000000	101.363	-165.7237
4060.000000	101.739	-163.9275
4120.000000	101.988	-163.4196
4180.000000	102.152	-163.2740
4250.000000	102.289	-163.4250
4310.000000	102.334	-163.8788
4370.000000	102.285	-164.3686
4440.000000	102.137	-164.4653
4500.000000	102.010	-164.0806
4550.000000	101.926	-163.6489
4620.000000	101.821	-162.8540
4680.000000	101.776	-161.7952
4750.000000	101.842	-160.4672
4820.000000	102.012	-159.6665
4870.000000	102.157	-159.5815
4940.000000	102.337	-160.1193
5000.000000	102.434	-161.0403
5080.000000	102.435	-162.4955
5150.000000	102.320	-163.4897
5220.000000	102.146	-163.9152
5300.000000	101.961	-163.8516
5380.000000	101.832	-163.7107
5450.000000	101.742	-163.8826
5520.000000	101.612	-164.4987
5600.000000	101.308	-165.4124
5700.000000	100.625	-165.4620
5800.000000	99.702	-162.5126
5900.000000	98.831	-155.2459
6000.000000	98.399	-145.5688
6080.000000	98.475	-137.8603
6150.000000	98.836	-131.8770
6220.000000	99.372	-127.0596
6300.000000	100.048	-123.1437
6400.000000	100.842	-120.1633
6500.000000	101.540	-118.4568
6600.000000	102.159	-117.4068
6700.000000	102.721	-116.6312
6800.000000	103.276	-115.8427
6900.000000	103.875	-115.1618
7000.000000	104.496	-115.0443
7100.000000	105.055	-115.6972
7200.000000	105.488	-116.7349
7300.000000	105.824	-117.3091
7400.000000	106.213	-116.7008
7500.000000	106.856	-115.0251
7620.000000	108.071	-113.1062
7750.000000	109.669	-113.9807
7880.000000	111.043	-120.1579
8000.000000	111.830	-130.2214
8120.000000	112.134	-142.6250
8250.000000	112.022	-156.2794
8380.000000	111.539	-168.0710
8500.000000	110.829	-176.5351
8620.000000	109.930	177.0915
8750.000000	108.797	172.2751
8850.000000	107.837	170.1843
9000.000000	106.365	169.7878
9120.000000	105.282	171.3205
9250.000000	104.258	174.3361
9380.000000	103.411	178.8546
9500.000000	102.900	-175.7788
9620.000000	102.770	-170.0992
9750.000000	103.035	-164.8291
9880.000000	103.537	-161.2797
10000.000000	104.055	-159.5669
10150.000000	104.670	-158.9887
10300.000000	105.235	-159.4809
10440.000000	105.747	-160.5382
10600.000000	106.359	-162.3164
10750.000000	106.994	-164.7200
10900.000000	107.688	-168.3203
11060.000000	108.430	-174.1680
11200.000000	108.972	178.5562
11380.000000	109.324	166.2903
11500.000000	109.256	156.8823
11720.000000	108.401	139.6578
11800.000000	107.858	134.1466
12060.000000	105.414	121.5425
12200.000000	103.812	118.5232
12410.000000	101.297	118.5038
12500.000000	100.247	119.8485
12650.000000	98.629	123.3380
12800.000000	97.257	127.7141
13150.000000	95.100	138.0566
13200.000000	94.882	139.4072
13400.000000	94.122	144.5329
13600.000000	93.459	149.4797
13800.000000	92.863	154.4942
14000.000000	92.390	159.6161
14300.000000	92.099	167.2041
14500.000000	92.250	171.9081
14750.000000	92.812	176.9544
15000.000000	93.701	-179.5518
15250.000000	94.762	-178.4904
15500.000000	95.799	179.1045
15750.000000	96.602	172.2387
16000.000000	96.974	160.6445
16250.000000	96.771	145.7693
16500.000000	95.963	130.6246
16750.000000	94.649	117.9049
17000.000000	92.991	108.4840
17250.000000	91.148	101.7131
17500.000000	89.234	96.5336
17750.000000	87.269	92.3876
18000.000000	85.193	89.4901
18250.000000	82.950	88.4806
18500.000000	80.525	89.9044
18750.000000	77.938	94.0551
19000.000000	75.207	101.4158
19250.000000	72.329	113.0833
19500.000000	69.311	130.1047
19750.000000	66.273	152.1489
20000.000000	63.572	177.1042
