* Measurement data measured by REW V5.20.4
* Source: Mic in at front panel (Pink) (Realtek(R) Audio), MICROPHONE (Master Volume), L, volume: 0.250
* Format: 256k Log Swept Sine, 1 sweep at -12.0 dBFS with no timing reference
* Dated: Jun 11, 2022 2:04:41 PM
* REW Settings:
*  C-weighting compensation: Off
*  Target level: 75.0 dB
* Note: Timeless R 75ohm
* Measurement: Timeless R 75ohm
* Smoothing: 1/12 octave
* Frequency Step: 1/48 octave
* Start Frequency: 20.000 Hz
*
* Freq(Hz)	SPL(dB)	Phase(degrees)
20.000000	72.024	27.6241
20.299999	72.029	27.0590
20.600000	72.031	26.4858
20.900000	72.029	25.8977
21.200001	72.025	25.2916
21.400000	72.022	24.8800
21.799999	72.014	24.0509
22.000000	72.010	23.6400
22.400000	72.003	22.8374
22.700001	72.000	22.2535
23.000000	71.999	21.6791
23.299999	72.002	21.1044
23.600000	72.006	20.5222
24.000000	72.012	19.7291
24.299999	72.015	19.1249
24.700001	72.013	18.3201
25.000000	72.007	17.7312
25.400000	71.994	16.9838
25.799999	71.980	16.2942
26.200001	71.970	15.6630
26.500000	71.965	15.2190
26.900000	71.963	14.6511
27.200001	71.962	14.2339
27.600000	71.962	13.6830
28.000000	71.963	13.1366
28.500000	71.968	12.4521
29.000000	71.972	11.7501
29.500000	71.967	11.0414
30.000000	71.948	10.3899
30.400000	71.928	9.9532
30.700001	71.916	9.6755
31.100000	71.908	9.3335
31.500000	71.908	8.9716
32.000000	71.904	8.4437
32.500000	71.883	7.8718
33.000000	71.848	7.3494
33.500000	71.813	6.9081
34.000000	71.787	6.4958
34.500000	71.767	6.0587
35.000000	71.749	5.6031
35.500000	71.735	5.1516
36.000000	71.733	4.6757
36.500000	71.737	4.1136
37.000000	71.735	3.4508
37.500000	71.715	2.7508
38.200001	71.663	1.8519
38.700001	71.623	1.2797
39.500000	71.569	0.3590
40.000000	71.537	-0.2499
40.599998	71.496	-0.9789
41.200001	71.450	-1.6403
41.799999	71.401	-2.1688
42.500000	71.353	-2.5695
43.099998	71.333	-2.7554
43.700001	71.334	-2.8691
44.400002	71.356	-3.0057
45.000000	71.381	-3.1947
45.500000	71.396	-3.4189
46.200001	71.392	-3.7723
46.799999	71.365	-4.0182
47.500000	71.320	-4.2100
48.200001	71.270	-4.3973
48.700001	71.228	-4.5697
49.400002	71.160	-4.8389
50.000000	71.107	-5.0703
50.799999	71.066	-5.4661
51.500000	71.060	-6.0428
52.200001	71.056	-6.8805
53.000000	71.025	-7.9791
53.799999	70.967	-8.8979
54.500000	70.920	-9.3932
55.200001	70.897	-9.6379
56.000000	70.896	-9.7510
57.000000	70.902	-9.7720
58.000000	70.901	-9.7401
59.000000	70.892	-9.9189
60.000000	70.843	-10.5129
60.799999	70.765	-11.1302
61.500000	70.688	-11.6416
62.200001	70.625	-12.1129
63.000000	70.583	-12.6426
64.000000	70.559	-13.3406
65.000000	70.521	-14.0129
66.000000	70.439	-14.4808
67.000000	70.323	-14.7867
68.000000	70.191	-15.3008
69.000000	70.054	-16.5376
70.000000	69.892	-18.9651
71.000000	69.604	-22.3561
72.000000	69.096	-24.7845
73.000000	68.585	-24.3884
74.000000	68.455	-22.2189
75.000000	68.692	-20.5226
76.199997	69.060	-19.5262
77.500000	69.396	-18.4217
78.800003	69.686	-17.5006
80.000000	69.828	-17.4352
81.199997	69.797	-17.7633
82.500000	69.656	-17.9670
83.800003	69.529	-18.1641
85.000000	69.457	-18.6318
86.199997	69.441	-19.3506
87.500000	69.517	-20.4403
88.500000	69.608	-21.6354
90.000000	69.623	-23.4707
91.199997	69.500	-23.9552
92.500000	69.342	-23.6597
93.800003	69.168	-23.5814
95.000000	68.962	-23.8665
96.199997	68.777	-24.1704
97.500000	68.707	-24.4327
98.800003	68.739	-24.6271
100.000000	68.741	-24.3878
101.500000	68.615	-23.3119
103.000000	68.337	-22.2849
104.400002	67.986	-22.4429
106.000000	67.602	-23.7392
107.500000	67.435	-24.0411
109.000000	67.601	-22.2055
110.599998	68.023	-19.5566
112.000000	68.535	-18.5503
113.800003	69.977	-20.7531
115.000000	71.631	-24.8323
117.199997	74.939	-35.6310
118.000000	75.851	-39.7042
120.599998	76.680	-46.1904
122.000000	75.736	-41.2826
124.099998	73.224	-27.7563
125.000000	72.009	-22.9395
126.500000	70.127	-18.6901
128.000000	68.735	-18.6931
131.500000	67.680	-19.9521
132.000000	67.616	-19.2404
134.000000	67.229	-14.5251
136.000000	66.868	-10.2913
138.000000	66.920	-10.9462
140.000000	67.175	-15.7509
143.000000	67.435	-22.3342
145.000000	67.619	-25.8057
147.500000	67.924	-30.2584
150.000000	68.181	-31.9257
152.500000	68.246	-29.7918
155.000000	67.890	-26.6011
157.500000	67.268	-24.5142
160.000000	66.768	-24.3990
162.500000	66.578	-25.1879
165.000000	66.615	-25.4583
167.500000	66.677	-25.1527
170.000000	66.594	-24.6913
172.500000	66.397	-24.2665
175.000000	66.204	-24.0733
177.500000	66.084	-24.1244
180.000000	66.024	-24.2422
182.500000	65.982	-24.2651
185.000000	65.939	-24.2068
187.500000	65.897	-24.1877
190.000000	65.869	-24.3139
192.500000	65.872	-24.6774
195.000000	65.914	-25.2756
197.500000	65.962	-25.8618
200.000000	65.935	-25.9894
203.000000	65.766	-25.2271
206.000000	65.552	-24.1580
209.000000	65.354	-23.6274
212.000000	65.133	-23.8035
214.000000	64.978	-24.1476
218.000000	64.824	-24.3746
220.000000	64.864	-24.0934
224.000000	64.980	-23.4121
227.000000	64.999	-23.1349
230.000000	64.986	-22.9752
233.000000	64.964	-22.7602
236.000000	64.926	-22.4820
240.000000	64.840	-22.0818
243.000000	64.763	-21.7944
247.000000	64.666	-21.4884
250.000000	64.600	-21.3105
254.000000	64.519	-21.0978
258.000000	64.451	-20.8608
262.000000	64.391	-20.5334
265.000000	64.344	-20.2468
269.000000	64.279	-19.8823
272.000000	64.230	-19.6328
276.000000	64.170	-19.3320
280.000000	64.115	-19.0625
285.000000	64.048	-18.7532
290.000000	63.992	-18.4965
295.000000	63.940	-18.1707
300.000000	63.880	-17.7638
304.000000	63.830	-17.4569
307.000000	63.794	-17.2378
311.000000	63.750	-16.9432
315.000000	63.708	-16.6450
320.000000	63.653	-16.2945
325.000000	63.589	-15.9692
330.000000	63.519	-15.6285
335.000000	63.451	-15.2788
340.000000	63.389	-14.9269
345.000000	63.332	-14.5546
350.000000	63.280	-14.1445
355.000000	63.234	-13.7124
360.000000	63.190	-13.3013
365.000000	63.147	-12.9343
370.000000	63.101	-12.5876
375.000000	63.056	-12.2283
382.000000	63.000	-11.6909
387.000000	62.964	-11.2899
395.000000	62.910	-10.6074
400.000000	62.877	-10.1560
406.000000	62.836	-9.6284
412.000000	62.793	-9.1321
418.000000	62.751	-8.6543
425.000000	62.708	-8.0975
431.000000	62.678	-7.6104
437.000000	62.654	-7.1235
444.000000	62.631	-6.5643
450.000000	62.615	-6.1189
455.000000	62.599	-5.7997
462.000000	62.569	-5.4165
468.000000	62.535	-5.0735
475.000000	62.494	-4.6144
482.000000	62.457	-4.1255
487.000000	62.432	-3.7697
494.000000	62.397	-3.2346
500.000000	62.372	-2.7378
508.000000	62.347	-2.0922
515.000000	62.328	-1.5679
522.000000	62.306	-1.0539
530.000000	62.278	-0.4506
538.000000	62.251	0.1638
545.000000	62.231	0.6973
552.000000	62.214	1.2388
560.000000	62.196	1.8607
570.000000	62.175	2.5997
580.000000	62.157	3.3132
590.000000	62.139	4.0730
600.000000	62.123	4.8945
608.000000	62.116	5.5452
615.000000	62.113	6.0824
622.000000	62.110	6.6044
630.000000	62.107	7.2228
640.000000	62.109	8.0516
650.000000	62.116	8.9065
660.000000	62.135	9.7383
670.000000	62.167	10.5049
680.000000	62.198	11.2034
690.000000	62.217	11.8676
700.000000	62.226	12.5265
710.000000	62.234	13.1969
720.000000	62.249	13.8783
730.000000	62.271	14.5599
740.000000	62.295	15.2429
750.000000	62.321	15.9406
762.000000	62.354	16.7924
775.000000	62.394	17.7256
788.000000	62.442	18.6574
800.000000	62.493	19.5048
812.000000	62.550	20.3416
825.000000	62.623	21.1978
838.000000	62.704	21.9482
850.000000	62.773	22.5711
862.000000	62.834	23.1824
875.000000	62.895	23.8611
885.000000	62.943	24.3943
900.000000	63.024	25.1895
912.000000	63.092	25.8226
925.000000	63.173	26.5176
938.000000	63.258	27.2065
950.000000	63.336	27.8101
962.000000	63.410	28.3701
975.000000	63.488	28.9403
988.000000	63.570	29.4969
1000.000000	63.650	30.0167
1015.000000	63.754	30.6888
1030.000000	63.865	31.3695
1044.000000	63.978	31.9560
1060.000000	64.114	32.5014
1075.000000	64.237	32.9215
1090.000000	64.356	33.3150
1106.000000	64.479	33.7197
1120.000000	64.587	34.0603
1138.000000	64.728	34.5015
1150.000000	64.826	34.7979
1172.000000	65.009	35.3068
1180.000000	65.077	35.4718
1206.000000	65.311	35.8605
1220.000000	65.435	35.9374
1241.000000	65.602	35.9325
1250.000000	65.664	35.9150
1265.000000	65.758	35.8929
1280.000000	65.843	35.9000
1315.000000	66.028	36.1047
1320.000000	66.055	36.1516
1340.000000	66.162	36.3616
1360.000000	66.270	36.6090
1380.000000	66.383	36.9197
1400.000000	66.509	37.3089
1430.000000	66.739	37.8991
1450.000000	66.910	38.1936
1475.000000	67.133	38.4727
1500.000000	67.371	38.7083
1525.000000	67.630	38.9506
1550.000000	67.906	39.2385
1575.000000	68.194	39.5432
1600.000000	68.466	39.7448
1625.000000	68.683	39.7583
1650.000000	68.831	39.5860
1675.000000	68.936	39.2288
1700.000000	69.038	38.6667
1725.000000	69.165	37.8891
1750.000000	69.323	36.9400
1775.000000	69.510	35.9029
1800.000000	69.715	34.8295
1825.000000	69.925	33.7027
1850.000000	70.126	32.5053
1875.000000	70.311	31.2520
1900.000000	70.481	29.9759
1925.000000	70.636	28.7146
1950.000000	70.786	27.4724
1975.000000	70.936	26.1882
2000.000000	71.084	24.7767
2030.000000	71.244	22.8593
2060.000000	71.370	20.7095
2090.000000	71.449	18.3618
2120.000000	71.467	15.8536
2140.000000	71.438	14.1319
2180.000000	71.275	10.7656
2200.000000	71.140	9.2245
2240.000000	70.768	6.7358
2270.000000	70.424	5.6439
2300.000000	70.064	5.3562
2330.000000	69.741	5.8071
2360.000000	69.500	6.7439
2400.000000	69.335	8.2057
2430.000000	69.308	9.1666
2470.000000	69.356	10.0631
2500.000000	69.425	10.4024
2540.000000	69.527	10.4384
2580.000000	69.617	10.0880
2620.000000	69.679	9.4508
2650.000000	69.700	8.8798
2690.000000	69.699	8.1455
2720.000000	69.687	7.6744
2760.000000	69.673	7.1130
2800.000000	69.662	6.5127
2850.000000	69.640	5.6227
2900.000000	69.585	4.6458
2950.000000	69.488	3.7491
3000.000000	69.365	2.9930
3040.000000	69.257	2.4565
3070.000000	69.172	2.0972
3110.000000	69.060	1.6903
3150.000000	68.955	1.3373
3200.000000	68.830	0.8841
3250.000000	68.686	0.4158
3300.000000	68.497	0.1234
3350.000000	68.271	0.3151
3400.000000	68.055	1.0983
3450.000000	67.889	2.2754
3500.000000	67.784	3.5770
3550.000000	67.738	4.8013
3600.000000	67.735	5.8199
3650.000000	67.760	6.5858
3700.000000	67.794	7.1293
3750.000000	67.833	7.5321
3820.000000	67.897	7.9734
3870.000000	67.951	8.2720
3950.000000	68.067	8.8278
4000.000000	68.166	9.1512
4060.000000	68.299	9.3625
4120.000000	68.424	9.3124
4180.000000	68.519	8.9994
4250.000000	68.567	8.3811
4310.000000	68.552	7.8339
4370.000000	68.517	7.4174
4440.000000	68.497	7.0070
4500.000000	68.513	6.4691
4550.000000	68.539	5.7121
4620.000000	68.550	3.9991
4680.000000	68.483	1.9536
4750.000000	68.250	-0.7094
4820.000000	67.818	-2.8651
4870.000000	67.403	-3.5590
4940.000000	66.777	-2.9539
5000.000000	66.314	-1.2047
5080.000000	65.918	1.9425
5150.000000	65.766	4.7262
5220.000000	65.734	7.2047
5300.000000	65.778	9.5614
5380.000000	65.854	11.4069
5450.000000	65.913	12.6407
5520.000000	65.952	13.6068
5600.000000	65.971	14.4811
5700.000000	65.962	15.3181
5800.000000	65.910	15.9833
5900.000000	65.802	16.7493
6000.000000	65.665	18.0286
6080.000000	65.574	19.5204
6150.000000	65.535	21.0496
6220.000000	65.540	22.6492
6300.000000	65.593	24.4788
6400.000000	65.718	26.7545
6500.000000	65.904	29.0237
6600.000000	66.153	31.2493
6700.000000	66.469	33.3884
6800.000000	66.860	35.4192
6900.000000	67.342	37.2587
7000.000000	67.918	38.7512
7100.000000	68.582	39.7295
7200.000000	69.327	40.0588
7300.000000	70.150	39.5858
7400.000000	71.036	38.0503
7500.000000	71.937	35.1007
7620.000000	72.927	29.2566
7750.000000	73.706	20.0020
7880.000000	74.029	8.6813
8000.000000	73.932	-2.1128
8120.000000	73.587	-12.6578
8250.000000	72.973	-24.2904
8380.000000	71.912	-35.1024
8500.000000	70.456	-41.9598
8620.000000	68.704	-44.8208
8750.000000	66.763	-44.2690
8850.000000	65.410	-42.2649
9000.000000	63.761	-38.2787
9120.000000	62.734	-35.0615
9250.000000	61.757	-31.5023
9380.000000	60.826	-27.1995
9500.000000	60.034	-22.2289
9620.000000	59.381	-16.4379
9750.000000	58.905	-9.6521
9880.000000	58.704	-2.8131
10000.000000	58.758	3.1756
10150.000000	59.103	9.8372
10300.000000	59.685	15.2188
10440.000000	60.366	18.7723
10600.000000	61.205	20.8336
10750.000000	61.946	20.7195
10900.000000	62.554	18.7218
11060.000000	62.995	14.9688
11200.000000	63.179	10.8772
11380.000000	63.130	5.3967
11500.000000	62.940	2.0386
11720.000000	62.343	-2.9400
11800.000000	62.066	-4.3167
12060.000000	61.010	-7.0231
12200.000000	60.367	-7.2155
12410.000000	59.402	-5.6708
12500.000000	59.026	-4.4061
12650.000000	58.494	-1.7261
12800.000000	58.105	1.3724
13150.000000	57.748	8.6688
13200.000000	57.747	9.6128
13400.000000	57.825	12.9856
13600.000000	57.972	15.6955
13800.000000	58.162	17.7869
14000.000000	58.435	19.3310
14300.000000	59.162	20.6371
14500.000000	59.915	20.6133
14750.000000	61.120	18.8682
15000.000000	62.455	14.0441
15250.000000	63.637	4.7135
15500.000000	64.331	-9.8655
15750.000000	64.256	-28.4741
16000.000000	63.304	-47.8942
16250.000000	61.574	-64.8130
16500.000000	59.297	-77.5774
16750.000000	56.715	-86.1703
17000.000000	53.996	-91.2235
17250.000000	51.216	-93.1085
17500.000000	48.435	-91.3819
17750.000000	45.850	-84.9507
18000.000000	43.781	-73.1761
18250.000000	41.960	-57.6714
18500.000000	39.832	-43.9872
18750.000000	37.641	-42.6990
19000.000000	35.922	-74.3917
19250.000000	34.794	179.0688
19500.000000	34.059	-67.2933
19750.000000	33.553	-145.0281
20000.000000	33.222	-29.8109
