* Measurement data measured by REW V5.20.4
* Source: Mic in at front panel (Pink) (Realtek(R) Audio), MICROPHONE (Master Volume), L, volume: 0.250
* Format: 256k Log Swept Sine, 1 sweep at -12.0 dBFS with no timing reference
* Dated: Apr 28, 2022 10:55:44 AM
* REW Settings:
*  C-weighting compensation: Off
*  Target level: 75.0 dB
* Note: Astrotec Vesna R
* Measurement: EJ07M R Apr 28
* Smoothing: 1/12 octave
* Frequency Step: 1/48 octave
* Start Frequency: 20.000 Hz
*
* Freq(Hz)	SPL(dB)	Phase(degrees)
20.000000	88.174	-114.1189
20.299999	88.258	-114.8231
20.600000	88.336	-115.5242
20.900000	88.410	-116.2191
21.200001	88.482	-116.9066
21.400000	88.531	-117.3619
21.799999	88.631	-118.2699
22.000000	88.681	-118.7241
22.400000	88.783	-119.6332
22.700001	88.858	-120.3109
23.000000	88.930	-120.9770
23.299999	89.000	-121.6248
23.600000	89.069	-122.2510
24.000000	89.158	-123.0534
24.299999	89.225	-123.6371
24.700001	89.311	-124.4027
25.000000	89.374	-124.9745
25.400000	89.453	-125.7378
25.799999	89.529	-126.5000
26.200001	89.600	-127.2550
26.500000	89.651	-127.8124
26.900000	89.713	-128.5398
27.200001	89.755	-129.0717
27.600000	89.809	-129.7621
28.000000	89.861	-130.4331
28.500000	89.928	-131.2537
29.000000	89.998	-132.0706
29.500000	90.068	-132.8966
30.000000	90.134	-133.7310
30.400000	90.184	-134.3963
30.700001	90.222	-134.8896
31.100000	90.271	-135.5373
31.500000	90.318	-136.1750
32.000000	90.374	-136.9642
32.500000	90.425	-137.7481
33.000000	90.472	-138.5225
33.500000	90.519	-139.2797
34.000000	90.567	-140.0169
34.500000	90.616	-140.7386
35.000000	90.666	-141.4505
35.500000	90.716	-142.1540
36.000000	90.767	-142.8462
36.500000	90.817	-143.5245
37.000000	90.864	-144.1894
37.500000	90.904	-144.8420
38.200001	90.948	-145.7321
38.700001	90.970	-146.3490
39.500000	90.999	-147.3115
40.000000	91.016	-147.9059
40.599998	91.039	-148.6143
41.200001	91.063	-149.3131
41.799999	91.089	-150.0029
42.500000	91.121	-150.8031
43.099998	91.148	-151.4841
43.700001	91.173	-152.1463
44.400002	91.199	-152.8794
45.000000	91.222	-153.4815
45.500000	91.243	-153.9825
46.200001	91.272	-154.7001
46.799999	91.293	-155.3241
47.500000	91.311	-156.0428
48.200001	91.323	-156.7544
48.700001	91.328	-157.2649
49.400002	91.329	-157.9700
50.000000	91.328	-158.5397
50.799999	91.335	-159.2395
51.500000	91.350	-159.8304
52.200001	91.368	-160.4285
53.000000	91.383	-161.1079
53.799999	91.394	-161.7570
54.500000	91.405	-162.2964
55.200001	91.418	-162.8174
56.000000	91.434	-163.4034
57.000000	91.452	-164.1488
58.000000	91.463	-164.9360
59.000000	91.462	-165.7553
60.000000	91.452	-166.5540
60.799999	91.443	-167.1572
61.500000	91.437	-167.6620
62.200001	91.436	-168.1472
63.000000	91.439	-168.6746
64.000000	91.449	-169.2849
65.000000	91.464	-169.8619
66.000000	91.478	-170.4888
67.000000	91.473	-171.1732
68.000000	91.446	-171.8051
69.000000	91.411	-172.3534
70.000000	91.378	-172.8875
71.000000	91.346	-173.4523
72.000000	91.318	-174.0387
73.000000	91.297	-174.6248
74.000000	91.285	-175.1971
75.000000	91.276	-175.7428
76.199997	91.265	-176.3492
77.500000	91.248	-176.9546
78.800003	91.228	-177.5399
80.000000	91.206	-178.0978
81.199997	91.180	-178.6841
82.500000	91.150	-179.3393
83.800003	91.120	-179.9969
85.000000	91.090	179.3952
86.199997	91.054	178.7936
87.500000	91.004	178.1873
88.500000	90.961	177.7685
90.000000	90.903	177.2038
91.199997	90.867	176.7677
92.500000	90.835	176.2879
93.800003	90.805	175.8220
95.000000	90.778	175.4174
96.199997	90.748	175.0262
97.500000	90.709	174.6079
98.800003	90.665	174.2012
100.000000	90.623	173.8322
101.500000	90.573	173.3865
103.000000	90.528	172.9900
104.400002	90.491	172.6587
106.000000	90.451	172.2835
107.500000	90.413	171.9131
109.000000	90.376	171.5230
110.599998	90.339	171.0980
112.000000	90.302	170.7313
113.800003	90.231	170.2701
115.000000	90.163	169.9670
117.199997	90.000	169.4528
118.000000	89.940	169.3092
120.599998	89.831	169.0245
122.000000	89.837	168.8179
124.099998	89.862	168.3841
125.000000	89.863	168.2075
126.500000	89.848	167.9500
128.000000	89.816	167.7112
131.500000	89.720	167.0920
132.000000	89.707	166.9952
134.000000	89.660	166.6045
136.000000	89.608	166.2340
138.000000	89.549	165.8972
140.000000	89.487	165.5989
143.000000	89.405	165.2209
145.000000	89.353	164.9966
147.500000	89.282	164.7532
150.000000	89.208	164.5375
152.500000	89.138	164.3090
155.000000	89.072	164.0708
157.500000	89.013	163.8448
160.000000	88.965	163.6172
162.500000	88.918	163.3741
165.000000	88.861	163.1303
167.500000	88.787	162.9067
170.000000	88.695	162.7226
172.500000	88.593	162.5830
175.000000	88.492	162.4673
177.500000	88.404	162.3566
180.000000	88.337	162.2443
182.500000	88.287	162.1135
185.000000	88.244	161.9581
187.500000	88.200	161.7977
190.000000	88.146	161.6546
192.500000	88.068	161.5396
195.000000	87.968	161.4729
197.500000	87.879	161.4756
200.000000	87.835	161.4699
203.000000	87.824	161.3453
206.000000	87.800	161.1617
209.000000	87.737	160.9572
212.000000	87.643	160.7254
214.000000	87.578	160.6054
218.000000	87.483	160.5980
220.000000	87.455	160.6922
224.000000	87.405	160.9135
227.000000	87.365	161.0251
230.000000	87.323	161.0932
233.000000	87.276	161.1405
236.000000	87.222	161.1705
240.000000	87.144	161.1975
243.000000	87.085	161.2228
247.000000	87.008	161.2784
250.000000	86.951	161.3513
254.000000	86.878	161.5104
258.000000	86.816	161.7151
262.000000	86.760	161.8845
265.000000	86.717	161.9644
269.000000	86.663	162.0350
272.000000	86.628	162.0759
276.000000	86.587	162.1332
280.000000	86.545	162.2216
285.000000	86.499	162.3503
290.000000	86.470	162.3747
295.000000	86.439	162.2812
300.000000	86.388	162.1901
304.000000	86.338	162.1583
307.000000	86.300	162.1519
311.000000	86.249	162.1521
315.000000	86.195	162.1550
320.000000	86.121	162.1796
325.000000	86.049	162.2512
330.000000	85.981	162.3603
335.000000	85.918	162.4774
340.000000	85.854	162.5800
345.000000	85.787	162.6770
350.000000	85.722	162.7950
355.000000	85.662	162.9373
360.000000	85.603	163.0916
365.000000	85.541	163.2515
370.000000	85.478	163.4182
375.000000	85.416	163.5940
382.000000	85.334	163.8560
387.000000	85.278	164.0527
395.000000	85.192	164.3843
400.000000	85.139	164.6020
406.000000	85.077	164.8644
412.000000	85.014	165.1180
418.000000	84.950	165.3777
425.000000	84.880	165.7200
431.000000	84.828	166.0400
437.000000	84.782	166.3556
444.000000	84.732	166.6986
450.000000	84.693	166.9559
455.000000	84.661	167.1277
462.000000	84.610	167.3167
468.000000	84.559	167.4844
475.000000	84.495	167.7284
482.000000	84.433	168.0063
487.000000	84.387	168.2121
494.000000	84.320	168.5261
500.000000	84.263	168.8323
508.000000	84.196	169.2609
515.000000	84.140	169.6241
522.000000	84.083	169.9856
530.000000	84.016	170.4268
538.000000	83.953	170.8978
545.000000	83.902	171.3183
552.000000	83.854	171.7428
560.000000	83.802	172.2227
570.000000	83.738	172.8050
580.000000	83.674	173.3923
590.000000	83.606	174.0048
600.000000	83.539	174.6616
608.000000	83.491	175.2061
615.000000	83.452	175.6834
622.000000	83.414	176.1699
630.000000	83.370	176.7554
640.000000	83.322	177.5240
650.000000	83.283	178.3060
660.000000	83.258	179.0778
670.000000	83.244	179.7813
680.000000	83.229	-179.5897
690.000000	83.203	-178.9761
700.000000	83.172	-178.3316
710.000000	83.141	-177.6478
720.000000	83.114	-176.9449
730.000000	83.091	-176.2338
740.000000	83.071	-175.5107
750.000000	83.052	-174.7727
762.000000	83.034	-173.8686
775.000000	83.020	-172.8713
788.000000	83.014	-171.8592
800.000000	83.018	-170.9011
812.000000	83.034	-169.9250
825.000000	83.067	-168.9130
838.000000	83.108	-168.0106
850.000000	83.141	-167.2478
862.000000	83.167	-166.4964
875.000000	83.192	-165.6631
885.000000	83.215	-165.0079
900.000000	83.255	-164.0249
912.000000	83.292	-163.2397
925.000000	83.338	-162.3949
938.000000	83.393	-161.5768
950.000000	83.448	-160.8596
962.000000	83.504	-160.1738
975.000000	83.568	-159.4512
988.000000	83.634	-158.7421
1000.000000	83.697	-158.0938
1015.000000	83.779	-157.2772
1030.000000	83.873	-156.4736
1044.000000	83.973	-155.7961
1060.000000	84.092	-155.1640
1075.000000	84.198	-154.6784
1090.000000	84.299	-154.2417
1106.000000	84.405	-153.8066
1120.000000	84.495	-153.4455
1138.000000	84.606	-152.9974
1150.000000	84.676	-152.7039
1172.000000	84.800	-152.1655
1180.000000	84.847	-151.9685
1206.000000	85.015	-151.3945
1220.000000	85.110	-151.1818
1241.000000	85.241	-150.9752
1250.000000	85.291	-150.9055
1265.000000	85.366	-150.7929
1280.000000	85.433	-150.6757
1315.000000	85.574	-150.3714
1320.000000	85.593	-150.3277
1340.000000	85.665	-150.1561
1360.000000	85.729	-149.9667
1380.000000	85.786	-149.7165
1400.000000	85.844	-149.3733
1430.000000	85.956	-148.7689
1450.000000	86.044	-148.3966
1475.000000	86.161	-147.9536
1500.000000	86.290	-147.4867
1525.000000	86.438	-146.9659
1550.000000	86.601	-146.3738
1575.000000	86.771	-145.7351
1600.000000	86.916	-145.1481
1625.000000	86.993	-144.6680
1650.000000	86.988	-144.2506
1675.000000	86.930	-143.8449
1700.000000	86.869	-143.4362
1725.000000	86.844	-143.0299
1750.000000	86.870	-142.6066
1775.000000	86.949	-142.1283
1800.000000	87.074	-141.6033
1825.000000	87.228	-141.1032
1850.000000	87.394	-140.6704
1875.000000	87.563	-140.2930
1900.000000	87.731	-139.9392
1925.000000	87.899	-139.5767
1950.000000	88.072	-139.1965
1975.000000	88.254	-138.8388
2000.000000	88.440	-138.5576
2030.000000	88.661	-138.3339
2060.000000	88.873	-138.1982
2090.000000	89.075	-138.1221
2120.000000	89.266	-138.0886
2140.000000	89.389	-138.0701
2180.000000	89.638	-138.0012
2200.000000	89.770	-137.9740
2240.000000	90.045	-138.0233
2270.000000	90.252	-138.1629
2300.000000	90.456	-138.3584
2330.000000	90.660	-138.5822
2360.000000	90.869	-138.8571
2400.000000	91.155	-139.3902
2430.000000	91.366	-139.9355
2470.000000	91.633	-140.8317
2500.000000	91.819	-141.6073
2540.000000	92.046	-142.7155
2580.000000	92.258	-143.8631
2620.000000	92.460	-145.0967
2650.000000	92.601	-146.0996
2690.000000	92.770	-147.5062
2720.000000	92.884	-148.5812
2760.000000	93.024	-150.0526
2800.000000	93.149	-151.6160
2850.000000	93.274	-153.7131
2900.000000	93.350	-155.9023
2950.000000	93.372	-158.0441
3000.000000	93.352	-160.0704
3040.000000	93.313	-161.6172
3070.000000	93.271	-162.7178
3110.000000	93.203	-164.0705
3150.000000	93.130	-165.2906
3200.000000	93.038	-166.6842
3250.000000	92.939	-167.9788
3300.000000	92.823	-169.1601
3350.000000	92.688	-170.1587
3400.000000	92.538	-170.9547
3450.000000	92.375	-171.5604
3500.000000	92.199	-171.9471
3550.000000	92.026	-172.1166
3600.000000	91.868	-172.1418
3650.000000	91.728	-172.1036
3700.000000	91.603	-172.0301
3750.000000	91.492	-171.9022
3820.000000	91.362	-171.6251
3870.000000	91.284	-171.3352
3950.000000	91.190	-170.6317
4000.000000	91.152	-170.0809
4060.000000	91.119	-169.3868
4120.000000	91.083	-168.6704
4180.000000	91.039	-167.9145
4250.000000	90.975	-166.9677
4310.000000	90.916	-166.0552
4370.000000	90.874	-165.0549
4440.000000	90.858	-163.8792
4500.000000	90.873	-162.9316
4550.000000	90.903	-162.1945
4620.000000	90.964	-161.2412
4680.000000	91.032	-160.4587
4750.000000	91.139	-159.5368
4820.000000	91.287	-158.6411
4870.000000	91.418	-158.0603
4940.000000	91.633	-157.3634
5000.000000	91.840	-156.8898
5080.000000	92.137	-156.4150
5150.000000	92.414	-156.1078
5220.000000	92.708	-155.9261
5300.000000	93.059	-155.9536
5380.000000	93.411	-156.3046
5450.000000	93.705	-156.9030
5520.000000	93.980	-157.7510
5600.000000	94.276	-159.0150
5700.000000	94.622	-161.0998
5800.000000	94.927	-163.8070
5900.000000	95.160	-167.0577
6000.000000	95.304	-170.6140
6080.000000	95.353	-173.5344
6150.000000	95.351	-176.0773
6220.000000	95.308	-178.5610
6300.000000	95.208	178.7489
6400.000000	95.021	175.7413
6500.000000	94.786	173.2169
6600.000000	94.526	171.1778
6700.000000	94.260	169.6014
6800.000000	94.004	168.4816
6900.000000	93.780	167.7678
7000.000000	93.603	167.3423
7100.000000	93.480	167.0828
7200.000000	93.414	166.9040
7300.000000	93.419	166.7095
7400.000000	93.503	166.3540
7500.000000	93.666	165.6795
7620.000000	93.949	164.2457
7750.000000	94.342	161.5615
7880.000000	94.762	157.1418
8000.000000	95.082	151.1140
8120.000000	95.235	143.1618
8250.000000	95.094	132.8939
8380.000000	94.543	122.1600
8500.000000	93.665	113.1880
8620.000000	92.499	105.9958
8750.000000	91.019	100.5248
8850.000000	89.801	97.8788
9000.000000	87.953	96.0483
9120.000000	86.523	96.0090
9250.000000	85.053	97.0231
9380.000000	83.677	98.8961
9500.000000	82.493	101.2100
9620.000000	81.391	103.9559
9750.000000	80.281	107.3386
9880.000000	79.255	111.0729
10000.000000	78.380	114.7585
10150.000000	77.379	119.6275
10300.000000	76.471	124.7338
10440.000000	75.702	129.6459
10600.000000	74.909	135.4045
10750.000000	74.237	140.9179
10900.000000	73.626	146.4986
11060.000000	73.045	152.5178
11200.000000	72.606	157.8271
11380.000000	72.129	164.6913
11500.000000	71.862	169.2923
11720.000000	71.473	177.7490
11800.000000	71.364	-179.1711
12060.000000	71.128	-169.1597
12200.000000	71.083	-163.7953
12410.000000	71.129	-155.8048
12500.000000	71.191	-152.4115
12650.000000	71.349	-146.8107
12800.000000	71.577	-141.2919
13150.000000	72.402	-128.8799
13200.000000	72.555	-127.1756
13400.000000	73.256	-120.5983
13600.000000	74.116	-114.5087
13800.000000	75.193	-109.1114
14000.000000	76.580	-104.7394
14300.000000	79.247	-101.4961
14500.000000	81.178	-103.1018
14750.000000	83.279	-111.5537
15000.000000	84.526	-127.4815
15250.000000	84.595	-146.5273
15500.000000	83.539	-161.8909
15750.000000	81.710	-170.2629
16000.000000	79.549	-172.6342
16250.000000	77.483	-171.2848
16500.000000	75.876	-167.9976
16750.000000	74.903	-163.8913
17000.000000	74.509	-159.7459
17250.000000	74.564	-156.3036
17500.000000	74.955	-154.4523
17750.000000	75.516	-155.2189
18000.000000	76.017	-159.4191
18250.000000	76.210	-166.9656
18500.000000	75.900	-176.3549
18750.000000	75.003	174.8950
19000.000000	73.565	168.9891
19250.000000	71.705	166.9897
19500.000000	69.570	168.9243
19750.000000	67.300	174.3185
20000.000000	65.026	-177.4209
