* Measurement data measured by REW V5.20.4
* Source: Mic in at front panel (Pink) (Realtek(R) Audio), MICROPHONE (Master Volume), L, volume: 0.250
* Format: 256k Log Swept Sine, 1 sweep at -12.0 dBFS with no timing reference
* Dated: Apr 28, 2022 10:54:37 AM
* REW Settings:
*  C-weighting compensation: Off
*  Target level: 75.0 dB
* Note: Astrotec Vesna L
* Measurement: EJ07M R Apr 28
* Smoothing: 1/12 octave
* Frequency Step: 1/48 octave
* Start Frequency: 20.000 Hz
*
* Freq(Hz)	SPL(dB)	Phase(degrees)
20.000000	87.378	-108.9839
20.299999	87.475	-109.6927
20.600000	87.564	-110.3883
20.900000	87.648	-111.0704
21.200001	87.729	-111.7398
21.400000	87.783	-112.1797
21.799999	87.893	-113.0445
22.000000	87.948	-113.4693
22.400000	88.060	-114.3027
22.700001	88.144	-114.9126
23.000000	88.229	-115.5097
23.299999	88.313	-116.0963
23.600000	88.397	-116.6760
24.000000	88.509	-117.4448
24.299999	88.590	-118.0224
24.700001	88.693	-118.7939
25.000000	88.766	-119.3694
25.400000	88.857	-120.1249
25.799999	88.944	-120.8608
26.200001	89.030	-121.5800
26.500000	89.093	-122.1142
26.900000	89.174	-122.8266
27.200001	89.231	-123.3616
27.600000	89.301	-124.0697
28.000000	89.366	-124.7595
28.500000	89.448	-125.5851
29.000000	89.534	-126.3823
29.500000	89.622	-127.1800
30.000000	89.710	-127.9982
30.400000	89.778	-128.6639
30.700001	89.828	-129.1633
31.100000	89.892	-129.8215
31.500000	89.954	-130.4682
32.000000	90.027	-131.2620
32.500000	90.094	-132.0435
33.000000	90.160	-132.8130
33.500000	90.226	-133.5708
34.000000	90.293	-134.3210
34.500000	90.359	-135.0679
35.000000	90.425	-135.8088
35.500000	90.489	-136.5332
36.000000	90.553	-137.2331
36.500000	90.618	-137.9111
37.000000	90.681	-138.5777
37.500000	90.739	-139.2405
38.200001	90.807	-140.1592
38.700001	90.848	-140.8061
39.500000	90.906	-141.8481
40.000000	90.940	-142.5175
40.599998	90.980	-143.3288
41.200001	91.018	-144.1213
41.799999	91.056	-144.8863
42.500000	91.103	-145.7576
43.099998	91.146	-146.4847
43.700001	91.190	-147.1810
44.400002	91.246	-147.9774
45.000000	91.293	-148.6877
45.500000	91.326	-149.2977
46.200001	91.358	-150.1160
46.799999	91.377	-150.7314
47.500000	91.400	-151.3597
48.200001	91.425	-151.9492
48.700001	91.443	-152.3695
49.400002	91.469	-152.9745
50.000000	91.494	-153.5240
50.799999	91.529	-154.3035
51.500000	91.558	-155.0025
52.200001	91.584	-155.6973
53.000000	91.611	-156.4862
53.799999	91.636	-157.2658
54.500000	91.659	-157.9300
55.200001	91.685	-158.5752
56.000000	91.714	-159.2929
57.000000	91.745	-160.1614
58.000000	91.768	-161.0069
59.000000	91.784	-161.8596
60.000000	91.791	-162.7336
60.799999	91.793	-163.4337
61.500000	91.795	-164.0424
62.200001	91.801	-164.6529
63.000000	91.814	-165.3558
64.000000	91.833	-166.2373
65.000000	91.848	-167.0999
66.000000	91.852	-167.8863
67.000000	91.849	-168.5693
68.000000	91.841	-169.1781
69.000000	91.825	-169.7368
70.000000	91.803	-170.2690
71.000000	91.780	-170.7961
72.000000	91.763	-171.3439
73.000000	91.758	-171.9534
74.000000	91.759	-172.6188
75.000000	91.759	-173.2812
76.199997	91.760	-174.0210
77.500000	91.763	-174.7668
78.800003	91.767	-175.4975
80.000000	91.767	-176.1933
81.199997	91.761	-176.9318
82.500000	91.745	-177.7857
83.800003	91.716	-178.6470
85.000000	91.683	-179.3987
86.199997	91.649	179.8964
87.500000	91.610	179.1772
88.500000	91.578	178.6590
90.000000	91.525	177.9623
91.199997	91.485	177.4779
92.500000	91.450	176.9787
93.800003	91.422	176.4657
95.000000	91.398	175.9771
96.199997	91.372	175.4942
97.500000	91.339	175.0019
98.800003	91.298	174.5393
100.000000	91.256	174.1153
101.500000	91.201	173.5535
103.000000	91.152	172.9516
104.400002	91.119	172.3937
106.000000	91.094	171.8132
107.500000	91.073	171.3322
109.000000	91.036	170.8625
110.599998	90.975	170.2885
112.000000	90.916	169.6881
113.800003	90.870	168.8495
115.000000	90.876	168.3458
117.199997	90.957	167.6953
118.000000	90.992	167.5173
120.599998	90.979	166.9499
122.000000	90.867	166.7446
124.099998	90.659	166.5161
125.000000	90.582	166.3568
126.500000	90.481	165.9813
128.000000	90.406	165.5437
131.500000	90.257	164.7659
132.000000	90.239	164.6884
134.000000	90.185	164.3485
136.000000	90.149	163.9041
138.000000	90.110	163.4437
140.000000	90.051	163.0742
143.000000	89.926	162.6936
145.000000	89.835	162.3829
147.500000	89.715	161.8703
150.000000	89.608	161.3782
152.500000	89.539	160.9792
155.000000	89.499	160.6411
157.500000	89.463	160.3420
160.000000	89.419	160.0385
162.500000	89.365	159.7107
165.000000	89.299	159.3820
167.500000	89.219	159.0778
170.000000	89.120	158.8178
172.500000	89.014	158.5746
175.000000	88.921	158.2941
177.500000	88.858	157.9695
180.000000	88.812	157.6498
182.500000	88.748	157.4258
185.000000	88.663	157.3260
187.500000	88.574	157.2423
190.000000	88.491	157.0814
192.500000	88.416	156.8462
195.000000	88.355	156.6036
197.500000	88.311	156.4173
200.000000	88.267	156.3153
203.000000	88.191	156.2991
206.000000	88.101	156.3052
209.000000	88.017	156.2788
212.000000	87.938	156.2394
214.000000	87.879	156.2011
218.000000	87.745	156.0956
220.000000	87.678	156.0540
224.000000	87.563	156.0157
227.000000	87.493	156.0126
230.000000	87.432	156.0352
233.000000	87.374	156.0898
236.000000	87.315	156.1611
240.000000	87.237	156.2378
243.000000	87.179	156.2670
247.000000	87.099	156.2873
250.000000	87.037	156.3148
254.000000	86.958	156.3900
258.000000	86.888	156.4730
262.000000	86.826	156.5071
265.000000	86.782	156.5038
269.000000	86.719	156.4797
272.000000	86.665	156.4583
276.000000	86.588	156.4576
280.000000	86.516	156.4988
285.000000	86.439	156.5531
290.000000	86.373	156.5309
295.000000	86.302	156.4271
300.000000	86.219	156.3385
304.000000	86.148	156.3124
307.000000	86.096	156.3094
311.000000	86.025	156.3137
315.000000	85.950	156.3242
320.000000	85.854	156.3627
325.000000	85.762	156.4442
330.000000	85.675	156.5608
335.000000	85.588	156.6996
340.000000	85.497	156.8463
345.000000	85.407	156.9946
350.000000	85.323	157.1566
355.000000	85.243	157.3376
360.000000	85.166	157.5298
365.000000	85.086	157.7294
370.000000	85.004	157.9374
375.000000	84.925	158.1560
382.000000	84.819	158.4797
387.000000	84.747	158.7202
395.000000	84.636	159.1200
400.000000	84.568	159.3788
406.000000	84.485	159.6912
412.000000	84.403	159.9998
418.000000	84.320	160.3170
425.000000	84.230	160.7239
431.000000	84.160	161.1014
437.000000	84.097	161.4804
444.000000	84.027	161.9037
450.000000	83.972	162.2316
455.000000	83.927	162.4635
462.000000	83.858	162.7410
468.000000	83.791	162.9904
475.000000	83.712	163.3361
482.000000	83.635	163.7184
487.000000	83.579	163.9971
494.000000	83.500	164.4091
500.000000	83.435	164.7977
508.000000	83.356	165.3379
515.000000	83.292	165.8006
522.000000	83.227	166.2592
530.000000	83.151	166.8042
538.000000	83.080	167.3768
545.000000	83.022	167.8886
552.000000	82.967	168.4050
560.000000	82.907	168.9855
570.000000	82.836	169.6886
580.000000	82.764	170.4014
590.000000	82.690	171.1436
600.000000	82.619	171.9189
608.000000	82.569	172.5424
615.000000	82.528	173.0780
622.000000	82.488	173.6197
630.000000	82.443	174.2710
640.000000	82.394	175.1279
650.000000	82.354	176.0007
660.000000	82.329	176.8598
670.000000	82.316	177.6463
680.000000	82.301	178.3519
690.000000	82.279	179.0343
700.000000	82.250	179.7422
710.000000	82.222	-179.5123
720.000000	82.198	-178.7495
730.000000	82.179	-177.9824
740.000000	82.163	-177.2094
750.000000	82.148	-176.4266
762.000000	82.135	-175.4730
775.000000	82.127	-174.4277
788.000000	82.130	-173.3777
800.000000	82.140	-172.3967
812.000000	82.163	-171.4064
825.000000	82.204	-170.3830
838.000000	82.253	-169.4747
850.000000	82.293	-168.7145
862.000000	82.328	-167.9731
875.000000	82.363	-167.1601
885.000000	82.393	-166.5286
900.000000	82.445	-165.5925
912.000000	82.491	-164.8546
925.000000	82.549	-164.0741
938.000000	82.615	-163.3357
950.000000	82.680	-162.7052
962.000000	82.748	-162.1214
975.000000	82.825	-161.5354
988.000000	82.905	-161.0023
1000.000000	82.981	-160.5623
1015.000000	83.076	-160.0888
1030.000000	83.168	-159.7428
1044.000000	83.239	-159.5752
1060.000000	83.280	-159.4662
1075.000000	83.279	-159.1546
1090.000000	83.287	-158.4663
1106.000000	83.358	-157.5387
1120.000000	83.470	-156.8584
1138.000000	83.635	-156.3390
1150.000000	83.740	-156.1905
1172.000000	83.908	-156.2034
1180.000000	83.962	-156.2789
1206.000000	84.113	-156.8094
1220.000000	84.164	-157.3069
1241.000000	84.168	-158.2219
1250.000000	84.136	-158.6006
1265.000000	84.036	-159.0857
1280.000000	83.886	-159.2455
1315.000000	83.477	-157.7871
1320.000000	83.429	-157.3793
1340.000000	83.302	-155.4549
1360.000000	83.282	-153.3691
1380.000000	83.353	-151.4257
1400.000000	83.483	-149.7518
1430.000000	83.743	-147.8279
1450.000000	83.928	-146.9283
1475.000000	84.151	-146.0924
1500.000000	84.368	-145.4246
1525.000000	84.582	-144.8179
1550.000000	84.797	-144.2048
1575.000000	85.005	-143.5772
1600.000000	85.176	-143.0144
1625.000000	85.271	-142.5605
1650.000000	85.278	-142.1647
1675.000000	85.226	-141.7736
1700.000000	85.168	-141.3728
1725.000000	85.142	-140.9675
1750.000000	85.165	-140.5367
1775.000000	85.237	-140.0412
1800.000000	85.353	-139.4908
1825.000000	85.496	-138.9582
1850.000000	85.650	-138.4849
1875.000000	85.805	-138.0570
1900.000000	85.958	-137.6422
1925.000000	86.110	-137.2085
1950.000000	86.265	-136.7475
1975.000000	86.429	-136.2998
2000.000000	86.597	-135.9192
2030.000000	86.795	-135.5631
2060.000000	86.983	-135.2808
2090.000000	87.161	-135.0442
2120.000000	87.328	-134.8356
2140.000000	87.434	-134.6911
2180.000000	87.649	-134.3473
2200.000000	87.763	-134.1708
2240.000000	88.004	-133.8944
2270.000000	88.186	-133.7616
2300.000000	88.366	-133.6594
2330.000000	88.547	-133.5611
2360.000000	88.736	-133.4909
2400.000000	88.999	-133.5315
2430.000000	89.197	-133.6856
2470.000000	89.451	-134.0329
2500.000000	89.632	-134.3755
2540.000000	89.858	-134.8790
2580.000000	90.077	-135.3954
2620.000000	90.296	-135.9790
2650.000000	90.457	-136.4871
2690.000000	90.661	-137.2312
2720.000000	90.808	-137.8126
2760.000000	91.002	-138.6381
2800.000000	91.193	-139.5796
2850.000000	91.414	-140.9508
2900.000000	91.601	-142.4926
2950.000000	91.746	-144.0846
3000.000000	91.861	-145.6747
3040.000000	91.935	-146.9619
3070.000000	91.980	-147.9221
3110.000000	92.030	-149.1602
3150.000000	92.075	-150.3483
3200.000000	92.127	-151.8123
3250.000000	92.165	-153.2906
3300.000000	92.179	-154.7582
3350.000000	92.163	-156.1338
3400.000000	92.123	-157.3848
3450.000000	92.057	-158.5107
3500.000000	91.967	-159.4695
3550.000000	91.864	-160.2484
3600.000000	91.764	-160.9009
3650.000000	91.667	-161.4843
3700.000000	91.573	-162.0056
3750.000000	91.482	-162.4331
3820.000000	91.373	-162.8670
3870.000000	91.307	-163.0499
3950.000000	91.226	-163.0747
4000.000000	91.194	-162.9730
4060.000000	91.163	-162.8154
4120.000000	91.125	-162.6312
4180.000000	91.074	-162.3996
4250.000000	90.996	-162.0511
4310.000000	90.920	-161.6406
4370.000000	90.857	-161.1360
4440.000000	90.813	-160.5372
4500.000000	90.798	-160.0869
4550.000000	90.798	-159.7662
4620.000000	90.810	-159.3942
4680.000000	90.828	-159.1024
4750.000000	90.866	-158.7353
4820.000000	90.933	-158.3676
4870.000000	91.000	-158.1438
4940.000000	91.117	-157.9138
5000.000000	91.231	-157.8048
5080.000000	91.391	-157.7529
5150.000000	91.534	-157.7408
5220.000000	91.684	-157.7674
5300.000000	91.857	-157.9034
5380.000000	92.020	-158.1942
5450.000000	92.142	-158.5732
5520.000000	92.242	-159.0202
5600.000000	92.341	-159.5788
5700.000000	92.461	-160.3956
5800.000000	92.583	-161.4354
5900.000000	92.693	-162.7027
6000.000000	92.784	-164.0783
6080.000000	92.845	-165.2035
6150.000000	92.890	-166.1990
6220.000000	92.929	-167.2032
6300.000000	92.963	-168.3359
6400.000000	92.993	-169.6686
6500.000000	93.021	-170.8880
6600.000000	93.054	-172.0332
6700.000000	93.095	-173.1365
6800.000000	93.148	-174.1868
6900.000000	93.220	-175.1970
7000.000000	93.320	-176.2363
7100.000000	93.443	-177.3790
7200.000000	93.593	-178.6709
7300.000000	93.777	179.8214
7400.000000	94.001	177.9755
7500.000000	94.254	175.6543
7620.000000	94.572	172.0779
7750.000000	94.891	166.9821
7880.000000	95.107	160.3423
8000.000000	95.134	152.8733
8120.000000	94.937	144.5194
8250.000000	94.435	135.2051
8380.000000	93.625	126.5300
8500.000000	92.637	119.7932
8620.000000	91.486	114.5877
8750.000000	90.139	110.6513
8850.000000	89.076	108.7121
9000.000000	87.502	107.2951
9120.000000	86.295	107.1754
9250.000000	85.049	107.8325
9380.000000	83.867	109.1742
9500.000000	82.837	110.9113
9620.000000	81.865	113.0408
9750.000000	80.873	115.7413
9880.000000	79.947	118.7974
10000.000000	79.153	121.8677
10150.000000	78.239	125.9818
10300.000000	77.408	130.3427
10440.000000	76.706	134.5613
10600.000000	75.981	139.5161
10750.000000	75.368	144.2576
10900.000000	74.813	149.0500
11060.000000	74.289	154.2059
11200.000000	73.894	158.7322
11380.000000	73.468	164.5479
11500.000000	73.228	168.4272
11720.000000	72.875	175.5215
11800.000000	72.773	178.0933
12060.000000	72.539	-173.5912
12200.000000	72.479	-169.1592
12410.000000	72.480	-162.5557
12500.000000	72.514	-159.7403
12650.000000	72.613	-155.0684
12800.000000	72.766	-150.4279
13150.000000	73.362	-139.8153
13200.000000	73.476	-138.3322
13400.000000	74.010	-132.5216
13600.000000	74.683	-126.9681
13800.000000	75.571	-121.8147
14000.000000	76.799	-117.3108
14300.000000	79.427	-112.9322
14500.000000	81.528	-113.1182
14750.000000	84.029	-119.7191
15000.000000	85.758	-135.6478
15250.000000	86.191	-158.0397
15500.000000	85.216	-178.1912
15750.000000	83.168	170.1536
16000.000000	80.575	166.6745
16250.000000	77.969	168.3550
16500.000000	75.828	172.7197
16750.000000	74.439	178.3230
17000.000000	73.796	-175.6924
17250.000000	73.775	-170.0142
17500.000000	74.291	-165.4390
17750.000000	75.227	-163.0858
18000.000000	76.360	-164.4632
18250.000000	77.359	-171.0340
18500.000000	77.856	177.1062
18750.000000	77.578	162.6383
19000.000000	76.446	150.1949
19250.000000	74.580	143.2812
19500.000000	72.205	142.5972
19750.000000	69.568	146.9932
20000.000000	66.899	154.9146
