* Measurement data measured by REW V5.20.4
* Source: Mic in at front panel (Pink) (Realtek(R) Audio), MICROPHONE (Master Volume), L, volume: 0.250
* Format: 256k Log Swept Sine, 1 sweep at -12.0 dBFS with no timing reference
* Dated: Jun 6, 2022 11:27:34 PM
* REW Settings:
*  C-weighting compensation: Off
*  Target level: 75.0 dB
* Note: BGVP DM6 L
* Measurement: BGVP DM6 L Jun 6
* Smoothing: 1/12 octave
* Frequency Step: 1/48 octave
* Start Frequency: 20.000 Hz
*
* Freq(Hz)	SPL(dB)	Phase(degrees)
20.000000	88.353	-124.6954
20.299999	88.418	-125.4257
20.600000	88.477	-126.1422
20.900000	88.532	-126.8477
21.200001	88.585	-127.5434
21.400000	88.619	-128.0010
21.799999	88.690	-128.8977
22.000000	88.725	-129.3354
22.400000	88.798	-130.1875
22.700001	88.853	-130.8076
23.000000	88.908	-131.4144
23.299999	88.963	-132.0107
23.600000	89.017	-132.5977
24.000000	89.086	-133.3660
24.299999	89.135	-133.9294
24.700001	89.196	-134.6599
25.000000	89.238	-135.1911
25.400000	89.291	-135.8785
25.799999	89.344	-136.5496
26.200001	89.397	-137.2149
26.500000	89.435	-137.7147
26.900000	89.482	-138.3826
27.200001	89.513	-138.8804
27.600000	89.549	-139.5306
28.000000	89.581	-140.1552
28.500000	89.621	-140.8942
29.000000	89.665	-141.5962
29.500000	89.712	-142.2765
30.000000	89.759	-142.9454
30.400000	89.797	-143.4740
30.700001	89.826	-143.8665
31.100000	89.865	-144.3848
31.500000	89.902	-144.8974
32.000000	89.944	-145.5281
32.500000	89.980	-146.1436
33.000000	90.013	-146.7407
33.500000	90.046	-147.3190
34.000000	90.080	-147.8788
34.500000	90.114	-148.4200
35.000000	90.150	-148.9445
35.500000	90.189	-149.4589
36.000000	90.231	-149.9713
36.500000	90.273	-150.4848
37.000000	90.312	-150.9963
37.500000	90.345	-151.5009
38.200001	90.380	-152.1897
38.700001	90.397	-152.6662
39.500000	90.415	-153.3923
40.000000	90.426	-153.8199
40.599998	90.443	-154.3113
41.200001	90.465	-154.7906
41.799999	90.488	-155.2664
42.500000	90.514	-155.8167
43.099998	90.537	-156.2796
43.700001	90.558	-156.7338
44.400002	90.580	-157.2522
45.000000	90.596	-157.6846
45.500000	90.610	-158.0386
46.200001	90.632	-158.5308
46.799999	90.652	-158.9485
47.500000	90.677	-159.4253
48.200001	90.703	-159.9046
48.700001	90.721	-160.2536
49.400002	90.744	-160.7250
50.000000	90.766	-161.0887
50.799999	90.807	-161.5565
51.500000	90.841	-162.0026
52.200001	90.857	-162.4325
53.000000	90.854	-162.7900
53.799999	90.850	-163.0070
54.500000	90.855	-163.1581
55.200001	90.867	-163.3272
56.000000	90.887	-163.5871
57.000000	90.909	-164.0369
58.000000	90.922	-164.5635
59.000000	90.933	-165.1134
60.000000	90.944	-165.6589
60.799999	90.955	-166.0655
61.500000	90.967	-166.3947
62.200001	90.981	-166.7040
63.000000	90.999	-167.0391
64.000000	91.018	-167.4384
65.000000	91.029	-167.8236
66.000000	91.028	-168.1979
67.000000	91.020	-168.5652
68.000000	91.004	-168.9068
69.000000	90.984	-169.1561
70.000000	90.982	-169.3441
71.000000	90.999	-169.6354
72.000000	91.015	-170.1017
73.000000	91.010	-170.6310
74.000000	90.990	-171.0231
75.000000	90.983	-171.1921
76.199997	91.021	-171.2932
77.500000	91.102	-171.5708
78.800003	91.182	-172.0344
80.000000	91.241	-172.5073
81.199997	91.282	-172.9669
82.500000	91.307	-173.4253
83.800003	91.316	-173.8482
85.000000	91.318	-174.2237
86.199997	91.317	-174.6053
87.500000	91.315	-175.0406
88.500000	91.315	-175.3815
90.000000	91.316	-175.8840
91.199997	91.317	-176.2642
92.500000	91.319	-176.6333
93.800003	91.320	-176.9678
95.000000	91.318	-177.2639
96.199997	91.312	-177.5470
97.500000	91.300	-177.8341
98.800003	91.287	-178.1147
100.000000	91.274	-178.3815
101.500000	91.261	-178.7129
103.000000	91.255	-179.0188
104.400002	91.257	-179.2878
106.000000	91.259	-179.6019
107.500000	91.256	-179.9210
109.000000	91.247	179.7291
110.599998	91.236	179.3322
112.000000	91.227	178.9927
113.800003	91.214	178.6266
115.000000	91.199	178.4599
117.199997	91.155	178.3449
118.000000	91.139	178.3415
120.599998	91.110	178.1644
122.000000	91.099	177.8765
124.099998	91.072	177.3652
125.000000	91.057	177.1665
126.500000	91.026	176.8902
128.000000	90.996	176.6816
131.500000	90.972	176.1649
132.000000	90.973	176.0656
134.000000	90.977	175.6619
136.000000	90.975	175.3126
138.000000	90.961	175.0255
140.000000	90.940	174.7632
143.000000	90.905	174.3586
145.000000	90.878	174.1073
147.500000	90.840	173.8357
150.000000	90.810	173.5792
152.500000	90.787	173.3282
155.000000	90.764	173.1281
157.500000	90.739	172.9626
160.000000	90.715	172.7783
162.500000	90.691	172.5692
165.000000	90.658	172.3567
167.500000	90.603	172.1748
170.000000	90.525	172.0621
172.500000	90.435	172.0325
175.000000	90.345	172.0767
177.500000	90.264	172.1949
180.000000	90.202	172.4079
182.500000	90.173	172.7415
185.000000	90.186	173.2036
187.500000	90.243	173.7350
190.000000	90.333	174.1637
192.500000	90.430	174.3088
195.000000	90.516	174.1516
197.500000	90.585	173.7784
200.000000	90.626	173.2793
203.000000	90.630	172.5928
206.000000	90.606	171.8660
209.000000	90.602	171.1440
212.000000	90.609	170.4632
214.000000	90.601	170.0711
218.000000	90.545	169.4651
220.000000	90.508	169.2375
224.000000	90.435	168.8939
227.000000	90.388	168.6953
230.000000	90.347	168.5121
233.000000	90.311	168.3269
236.000000	90.275	168.1364
240.000000	90.221	167.8763
243.000000	90.176	167.6913
247.000000	90.111	167.4884
250.000000	90.063	167.3813
254.000000	90.004	167.2985
258.000000	89.957	167.2408
262.000000	89.917	167.1395
265.000000	89.885	167.0313
269.000000	89.834	166.8872
272.000000	89.794	166.8033
276.000000	89.741	166.7323
280.000000	89.694	166.6977
285.000000	89.649	166.6585
290.000000	89.613	166.5407
295.000000	89.570	166.3347
300.000000	89.514	166.1386
304.000000	89.467	166.0258
307.000000	89.432	165.9595
311.000000	89.385	165.8802
315.000000	89.335	165.8064
320.000000	89.268	165.7412
325.000000	89.203	165.7252
330.000000	89.142	165.7406
335.000000	89.083	165.7581
340.000000	89.022	165.7641
345.000000	88.961	165.7667
350.000000	88.903	165.7813
355.000000	88.848	165.8118
360.000000	88.793	165.8533
365.000000	88.736	165.9034
370.000000	88.677	165.9624
375.000000	88.619	166.0305
382.000000	88.542	166.1396
387.000000	88.489	166.2263
395.000000	88.406	166.3838
400.000000	88.353	166.4921
406.000000	88.289	166.6239
412.000000	88.223	166.7557
418.000000	88.157	166.9027
425.000000	88.084	167.1144
431.000000	88.028	167.3217
437.000000	87.977	167.5278
444.000000	87.922	167.7487
450.000000	87.878	167.9056
455.000000	87.841	167.9978
462.000000	87.783	168.0840
468.000000	87.724	168.1726
475.000000	87.652	168.3326
482.000000	87.581	168.5322
487.000000	87.529	168.6838
494.000000	87.454	168.9238
500.000000	87.390	169.1684
508.000000	87.314	169.5177
515.000000	87.250	169.8141
522.000000	87.186	170.1106
530.000000	87.110	170.4771
538.000000	87.038	170.8723
545.000000	86.980	171.2262
552.000000	86.924	171.5845
560.000000	86.863	171.9910
570.000000	86.788	172.4877
580.000000	86.710	172.9954
590.000000	86.628	173.5312
600.000000	86.547	174.1060
608.000000	86.489	174.5819
615.000000	86.441	174.9999
622.000000	86.393	175.4294
630.000000	86.338	175.9536
640.000000	86.274	176.6493
650.000000	86.220	177.3612
660.000000	86.178	178.0629
670.000000	86.148	178.6951
680.000000	86.116	179.2533
690.000000	86.074	179.7990
700.000000	86.026	-179.6193
710.000000	85.977	-178.9926
720.000000	85.933	-178.3432
730.000000	85.892	-177.6840
740.000000	85.853	-177.0129
750.000000	85.816	-176.3275
762.000000	85.775	-175.4856
775.000000	85.736	-174.5544
788.000000	85.704	-173.6082
800.000000	85.683	-172.7118
812.000000	85.674	-171.7977
825.000000	85.679	-170.8523
838.000000	85.690	-170.0148
850.000000	85.695	-169.3088
862.000000	85.692	-168.6079
875.000000	85.685	-167.8202
885.000000	85.682	-167.1946
900.000000	85.684	-166.2491
912.000000	85.690	-165.4881
925.000000	85.703	-164.6641
938.000000	85.723	-163.8613
950.000000	85.747	-163.1516
962.000000	85.771	-162.4660
975.000000	85.801	-161.7372
988.000000	85.833	-161.0179
1000.000000	85.865	-160.3590
1015.000000	85.910	-159.5313
1030.000000	85.964	-158.7199
1044.000000	86.026	-158.0348
1060.000000	86.101	-157.3871
1075.000000	86.164	-156.8763
1090.000000	86.222	-156.4019
1106.000000	86.282	-155.9121
1120.000000	86.332	-155.4929
1138.000000	86.392	-154.9580
1150.000000	86.429	-154.5993
1172.000000	86.494	-153.9292
1180.000000	86.520	-153.6813
1206.000000	86.619	-152.9292
1220.000000	86.679	-152.6127
1241.000000	86.758	-152.2411
1250.000000	86.786	-152.0968
1265.000000	86.827	-151.8533
1280.000000	86.862	-151.5967
1315.000000	86.934	-150.9418
1320.000000	86.945	-150.8463
1340.000000	86.987	-150.4682
1360.000000	87.026	-150.0811
1380.000000	87.063	-149.6540
1400.000000	87.106	-149.1664
1430.000000	87.202	-148.4252
1450.000000	87.281	-148.0211
1475.000000	87.385	-147.6029
1500.000000	87.498	-147.2196
1525.000000	87.622	-146.8275
1550.000000	87.757	-146.3976
1575.000000	87.893	-145.9411
1600.000000	88.001	-145.5488
1625.000000	88.039	-145.2762
1650.000000	87.993	-145.0841
1675.000000	87.893	-144.9298
1700.000000	87.785	-144.8063
1725.000000	87.709	-144.7230
1750.000000	87.679	-144.6597
1775.000000	87.696	-144.5769
1800.000000	87.753	-144.4847
1825.000000	87.833	-144.4609
1850.000000	87.916	-144.5535
1875.000000	87.991	-144.7496
1900.000000	88.051	-145.0087
1925.000000	88.093	-145.2869
1950.000000	88.122	-145.5623
1975.000000	88.138	-145.8578
2000.000000	88.136	-146.1987
2030.000000	88.098	-146.6212
2060.000000	88.019	-146.9403
2090.000000	87.907	-147.0586
2120.000000	87.774	-146.9371
2140.000000	87.680	-146.7131
2180.000000	87.498	-145.9241
2200.000000	87.417	-145.3881
2240.000000	87.281	-144.0976
2270.000000	87.200	-142.9281
2300.000000	87.148	-141.5639
2330.000000	87.141	-140.0373
2360.000000	87.195	-138.4769
2400.000000	87.355	-136.6414
2430.000000	87.522	-135.5987
2470.000000	87.766	-134.7441
2500.000000	87.940	-134.4936
2540.000000	88.128	-134.5262
2580.000000	88.263	-134.7474
2620.000000	88.354	-135.0090
2650.000000	88.397	-135.1760
2690.000000	88.430	-135.2782
2720.000000	88.443	-135.2218
2760.000000	88.461	-134.9802
2800.000000	88.489	-134.6097
2850.000000	88.542	-134.0220
2900.000000	88.616	-133.3169
2950.000000	88.717	-132.4814
3000.000000	88.861	-131.5878
3040.000000	89.011	-130.9309
3070.000000	89.142	-130.4946
3110.000000	89.339	-129.9893
3150.000000	89.563	-129.5976
3200.000000	89.871	-129.3322
3250.000000	90.189	-129.3244
3300.000000	90.499	-129.4807
3350.000000	90.806	-129.6503
3400.000000	91.127	-129.7767
3450.000000	91.477	-129.9146
3500.000000	91.866	-130.1526
3550.000000	92.300	-130.6375
3600.000000	92.773	-131.5580
3650.000000	93.259	-133.0488
3700.000000	93.728	-135.1234
3750.000000	94.163	-137.6812
3820.000000	94.706	-141.8748
3870.000000	95.040	-145.2170
3950.000000	95.458	-151.0148
4000.000000	95.628	-154.8409
4060.000000	95.715	-159.4937
4120.000000	95.660	-163.9591
4180.000000	95.473	-167.9567
4250.000000	95.113	-171.7639
4310.000000	94.722	-174.1384
4370.000000	94.300	-175.6801
4440.000000	93.819	-176.5760
4500.000000	93.443	-176.7090
4550.000000	93.165	-176.4404
4620.000000	92.842	-175.5855
4680.000000	92.636	-174.4749
4750.000000	92.492	-172.8288
4820.000000	92.468	-170.9781
4870.000000	92.523	-169.6401
4940.000000	92.690	-167.8522
5000.000000	92.905	-166.4687
5080.000000	93.272	-164.8977
5150.000000	93.654	-163.8134
5220.000000	94.084	-163.0954
5300.000000	94.605	-162.8859
5380.000000	95.117	-163.4670
5450.000000	95.518	-164.6635
5520.000000	95.846	-166.4366
5600.000000	96.113	-169.0260
5700.000000	96.265	-172.8130
5800.000000	96.202	-176.7402
5900.000000	95.928	179.7750
6000.000000	95.477	177.2632
6080.000000	95.021	176.1685
6150.000000	94.572	175.9745
6220.000000	94.092	176.5973
6300.000000	93.537	178.4604
6400.000000	92.945	-177.5037
6500.000000	92.611	-172.3454
6600.000000	92.550	-167.2045
6700.000000	92.651	-162.5766
6800.000000	92.831	-158.3212
6900.000000	93.078	-154.2341
7000.000000	93.403	-150.2882
7100.000000	93.811	-146.5570
7200.000000	94.307	-143.1281
7300.000000	94.901	-140.1304
7400.000000	95.593	-137.7679
7500.000000	96.361	-136.2871
7620.000000	97.331	-136.0363
7750.000000	98.328	-138.1560
7880.000000	99.103	-143.0992
8000.000000	99.483	-149.7377
8120.000000	99.485	-157.2402
8250.000000	99.077	-164.8917
8380.000000	98.319	-170.8515
8500.000000	97.420	-174.3196
8620.000000	96.470	-176.0554
8750.000000	95.501	-176.6929
8850.000000	94.842	-176.8039
9000.000000	94.008	-177.3114
9120.000000	93.410	-178.7197
9250.000000	92.687	178.5013
9380.000000	91.737	175.0347
9500.000000	90.549	172.6004
9620.000000	88.999	172.9769
9750.000000	86.923	179.0911
9880.000000	84.698	-168.2696
10000.000000	83.107	-154.0583
10150.000000	82.349	-140.1803
10300.000000	82.185	-133.6513
10440.000000	81.747	-130.9774
10600.000000	80.745	-127.3552
10750.000000	79.487	-121.6546
10900.000000	78.109	-113.7975
11060.000000	76.655	-103.6484
11200.000000	75.470	-93.7155
11380.000000	74.100	-79.8723
11500.000000	73.281	-70.0365
11720.000000	71.982	-50.7505
11800.000000	71.587	-43.3465
12060.000000	70.688	-18.0917
12200.000000	70.515	-3.9292
12410.000000	70.796	17.4276
12500.000000	71.126	26.2870
12650.000000	71.896	40.0814
12800.000000	72.817	52.1132
13150.000000	74.783	72.5255
13200.000000	75.000	74.7724
13400.000000	75.684	83.0477
13600.000000	76.127	91.1149
13800.000000	76.432	99.6678
14000.000000	76.739	109.0149
14300.000000	77.624	124.8067
14500.000000	78.749	136.0510
14750.000000	80.776	149.3340
15000.000000	83.199	159.7386
15250.000000	85.578	165.0180
15500.000000	87.456	163.3089
15750.000000	88.469	155.0307
16000.000000	88.500	144.1707
16250.000000	87.804	135.3186
16500.000000	86.874	129.5904
16750.000000	86.049	125.0801
17000.000000	85.229	120.1843
17250.000000	84.092	115.8209
17500.000000	82.481	114.5477
17750.000000	80.546	117.3167
18000.000000	78.603	122.2967
18250.000000	76.787	127.9529
18500.000000	75.037	134.3578
18750.000000	73.355	141.1041
19000.000000	71.710	147.6628
19250.000000	69.910	155.3964
19500.000000	67.798	166.7756
19750.000000	65.420	-177.0726
20000.000000	63.049	-157.4648
