* Measurement data measured by REW V5.20
* Source: Mic in at front panel (Pink) (Realtek(R) Audio), MICROPHONE (Master Volume), L, volume: 0.250
* Format: 256k Log Swept Sine, 1 sweep at -12.0 dBFS with no timing reference
* Dated: Oct 7, 2021 1:26:40 PM
* REW Settings:
*  C-weighting compensation: Off
*  Target level: 75.0 dB
* Note: BL03 L
* Measurement: Oct 7
* Smoothing: 1/12 octave
* Frequency Step: 1/48 octave
* Start Frequency: 20.000 Hz
*
* Freq(Hz)	SPL(dB)	Phase(degrees)
20.000000	104.9	-155.5931
20.299999	104.9	-156.2417
20.600000	104.9	-156.8757
20.900000	104.9	-157.4974
21.200001	104.9	-158.1088
21.400000	104.9	-158.5112
21.799999	104.9	-159.3036
22.000000	104.9	-159.6933
22.400000	104.9	-160.4588
22.700001	104.9	-161.0202
23.000000	104.9	-161.5704
23.299999	104.9	-162.1099
23.600000	104.9	-162.6396
24.000000	104.9	-163.3327
24.299999	104.9	-163.8444
24.700001	104.9	-164.5175
25.000000	104.9	-165.0163
25.400000	104.9	-165.6726
25.799999	104.9	-166.3164
26.200001	104.8	-166.9435
26.500000	104.8	-167.4009
26.900000	104.8	-167.9924
27.200001	104.8	-168.4232
27.600000	104.8	-168.9836
28.000000	104.8	-169.5322
28.500000	104.8	-170.2066
29.000000	104.8	-170.8703
29.500000	104.8	-171.5222
30.000000	104.8	-172.1622
30.400000	104.7	-172.6668
30.700001	104.7	-173.0417
31.100000	104.7	-173.5374
31.500000	104.7	-174.0280
32.000000	104.7	-174.6323
32.500000	104.7	-175.2247
33.000000	104.7	-175.8048
33.500000	104.6	-176.3738
34.000000	104.6	-176.9326
34.500000	104.6	-177.4802
35.000000	104.6	-178.0146
35.500000	104.6	-178.5356
36.000000	104.6	-179.0448
36.500000	104.5	-179.5446
37.000000	104.5	179.9647
37.500000	104.5	179.4853
38.200001	104.5	178.8354
38.700001	104.4	178.3849
39.500000	104.4	177.6800
40.000000	104.4	177.2477
40.599998	104.3	176.7383
41.200001	104.3	176.2385
41.799999	104.3	175.7464
42.500000	104.3	175.1824
43.099998	104.2	174.7101
43.700001	104.2	174.2483
44.400002	104.2	173.7200
45.000000	104.1	173.2746
45.500000	104.1	172.9098
46.200001	104.1	172.4114
46.799999	104.0	171.9968
47.500000	104.0	171.5287
48.200001	103.9	171.0789
48.700001	103.9	170.7692
49.400002	103.9	170.3518
50.000000	103.8	170.0091
50.799999	103.8	169.5736
51.500000	103.7	169.2103
52.200001	103.7	168.8612
53.000000	103.7	168.4883
53.799999	103.6	168.1615
54.500000	103.6	167.9151
55.200001	103.6	167.6852
56.000000	103.5	167.4059
57.000000	103.5	166.9930
58.000000	103.5	166.5239
59.000000	103.5	166.0458
60.000000	103.4	165.5735
60.799999	103.4	165.1906
61.500000	103.4	164.8492
62.200001	103.3	164.5057
63.000000	103.3	164.1175
64.000000	103.3	163.6426
65.000000	103.2	163.1750
66.000000	103.2	162.7125
67.000000	103.2	162.2545
68.000000	103.1	161.7940
69.000000	103.1	161.3195
70.000000	103.0	160.8311
71.000000	103.0	160.3429
72.000000	102.9	159.8873
73.000000	102.9	159.4903
74.000000	102.8	159.1339
75.000000	102.8	158.7921
76.199997	102.7	158.3947
77.500000	102.7	157.9660
78.800003	102.6	157.5209
80.000000	102.6	157.0903
81.199997	102.5	156.6366
82.500000	102.4	156.1201
83.800003	102.4	155.6000
85.000000	102.3	155.1486
86.199997	102.2	154.7440
87.500000	102.2	154.3567
88.500000	102.1	154.0836
90.000000	102.0	153.6964
91.199997	101.9	153.4038
92.500000	101.9	153.1083
93.800003	101.8	152.8323
95.000000	101.7	152.5882
96.199997	101.7	152.3502
97.500000	101.6	152.0977
98.800003	101.5	151.8533
100.000000	101.5	151.6395
101.500000	101.4	151.3953
103.000000	101.3	151.1743
104.400002	101.3	150.9751
106.000000	101.2	150.7417
107.500000	101.1	150.5084
109.000000	101.1	150.2457
110.599998	101.0	149.9320
112.000000	100.9	149.6475
113.800003	100.9	149.3027
115.000000	100.8	149.1132
117.199997	100.7	148.9027
118.000000	100.6	148.8627
120.599998	100.5	148.7148
122.000000	100.4	148.5817
124.099998	100.3	148.3516
125.000000	100.3	148.2528
126.500000	100.2	148.0957
128.000000	100.2	147.9538
131.500000	100.0	147.6753
132.000000	100.0	147.6373
134.000000	99.9	147.4805
136.000000	99.8	147.3168
138.000000	99.8	147.1589
140.000000	99.7	147.0221
143.000000	99.6	146.8592
145.000000	99.5	146.7565
147.500000	99.4	146.6178
150.000000	99.3	146.4790
152.500000	99.2	146.3571
155.000000	99.1	146.2951
157.500000	99.0	146.2825
160.000000	98.9	146.2606
162.500000	98.8	146.2041
165.000000	98.7	146.1340
167.500000	98.6	146.0805
170.000000	98.5	146.0569
172.500000	98.4	146.0591
175.000000	98.3	146.0766
177.500000	98.2	146.1002
180.000000	98.1	146.1232
182.500000	98.1	146.1374
185.000000	98.0	146.1385
187.500000	97.9	146.1354
190.000000	97.8	146.1422
192.500000	97.7	146.1685
195.000000	97.7	146.2145
197.500000	97.6	146.2767
200.000000	97.5	146.3565
203.000000	97.4	146.4732
206.000000	97.3	146.5896
209.000000	97.2	146.6801
212.000000	97.2	146.7449
214.000000	97.1	146.7899
218.000000	97.0	146.9408
220.000000	96.9	147.0544
224.000000	96.8	147.3081
227.000000	96.7	147.4841
230.000000	96.7	147.6450
233.000000	96.6	147.7978
236.000000	96.5	147.9438
240.000000	96.4	148.1276
243.000000	96.3	148.2659
247.000000	96.2	148.4775
250.000000	96.1	148.6736
254.000000	96.0	148.9924
258.000000	95.9	149.3352
262.000000	95.9	149.6318
265.000000	95.8	149.8202
269.000000	95.7	150.0699
272.000000	95.7	150.2803
276.000000	95.6	150.5948
280.000000	95.5	150.9303
285.000000	95.4	151.3394
290.000000	95.3	151.6727
295.000000	95.3	151.9190
300.000000	95.2	152.1640
304.000000	95.1	152.3973
307.000000	95.0	152.5900
311.000000	95.0	152.8561
315.000000	94.9	153.1264
320.000000	94.8	153.4852
325.000000	94.7	153.8864
330.000000	94.6	154.3157
335.000000	94.6	154.7430
340.000000	94.5	155.1518
345.000000	94.4	155.5494
350.000000	94.3	155.9529
355.000000	94.2	156.3687
360.000000	94.2	156.7930
365.000000	94.1	157.2234
370.000000	94.0	157.6611
375.000000	94.0	158.1057
382.000000	93.9	158.7330
387.000000	93.8	159.1826
395.000000	93.7	159.9068
400.000000	93.6	160.3613
406.000000	93.6	160.9012
412.000000	93.5	161.4334
418.000000	93.4	161.9742
425.000000	93.4	162.6393
431.000000	93.3	163.2315
437.000000	93.3	163.8192
444.000000	93.2	164.4800
450.000000	93.2	165.0083
455.000000	93.1	165.4052
462.000000	93.1	165.9091
468.000000	93.0	166.3470
475.000000	93.0	166.9059
482.000000	92.9	167.4993
487.000000	92.8	167.9308
494.000000	92.8	168.5608
500.000000	92.7	169.1381
508.000000	92.7	169.9324
515.000000	92.6	170.6291
522.000000	92.6	171.3461
530.000000	92.5	172.2136
538.000000	92.5	173.0867
545.000000	92.5	173.7827
552.000000	92.4	174.3901
560.000000	92.4	175.0082
570.000000	92.4	175.7621
580.000000	92.3	176.5780
590.000000	92.2	177.4714
600.000000	92.2	178.4473
608.000000	92.1	179.2933
615.000000	92.1	-179.9021
622.000000	92.0	-179.0033
630.000000	92.0	-177.8411
640.000000	92.0	-176.3261
650.000000	92.1	-175.0687
660.000000	92.2	-174.2243
670.000000	92.3	-173.6468
680.000000	92.3	-173.1197
690.000000	92.3	-172.5156
700.000000	92.3	-171.8060
710.000000	92.3	-171.0128
720.000000	92.3	-170.1785
730.000000	92.3	-169.3272
740.000000	92.3	-168.4634
750.000000	92.3	-167.5871
762.000000	92.3	-166.5219
775.000000	92.3	-165.3602
788.000000	92.3	-164.1972
800.000000	92.4	-163.1125
812.000000	92.4	-162.0210
825.000000	92.5	-160.8922
838.000000	92.6	-159.8808
850.000000	92.6	-159.0250
862.000000	92.7	-158.1875
875.000000	92.8	-157.2693
885.000000	92.8	-156.5539
900.000000	92.9	-155.4865
912.000000	93.0	-154.6379
925.000000	93.1	-153.7280
938.000000	93.1	-152.8464
950.000000	93.2	-152.0686
962.000000	93.3	-151.3200
975.000000	93.4	-150.5306
988.000000	93.5	-149.7608
1000.000000	93.6	-149.0647
1015.000000	93.8	-148.2018
1030.000000	93.9	-147.3666
1044.000000	94.0	-146.6691
1060.000000	94.2	-146.0203
1075.000000	94.4	-145.5224
1090.000000	94.5	-145.0752
1106.000000	94.6	-144.6311
1120.000000	94.8	-144.2654
1138.000000	94.9	-143.8161
1150.000000	95.0	-143.5246
1172.000000	95.2	-142.9969
1180.000000	95.3	-142.8063
1206.000000	95.5	-142.2607
1220.000000	95.7	-142.0679
1241.000000	95.9	-141.8977
1250.000000	95.9	-141.8458
1265.000000	96.1	-141.7652
1280.000000	96.2	-141.6835
1315.000000	96.4	-141.4825
1320.000000	96.5	-141.4568
1340.000000	96.6	-141.3694
1360.000000	96.8	-141.2904
1380.000000	96.9	-141.1874
1400.000000	97.1	-141.0385
1430.000000	97.4	-140.8305
1450.000000	97.6	-140.7985
1475.000000	97.8	-140.8659
1500.000000	98.0	-140.9940
1525.000000	98.2	-141.1407
1550.000000	98.4	-141.2797
1575.000000	98.5	-141.4271
1600.000000	98.7	-141.6762
1625.000000	98.8	-142.0809
1650.000000	99.0	-142.5970
1675.000000	99.1	-143.1732
1700.000000	99.3	-143.7951
1725.000000	99.4	-144.4681
1750.000000	99.5	-145.1711
1775.000000	99.6	-145.8620
1800.000000	99.6	-146.5436
1825.000000	99.7	-147.2814
1850.000000	99.8	-148.1098
1875.000000	99.9	-149.0051
1900.000000	99.9	-149.9226
1925.000000	100.0	-150.8192
1950.000000	100.0	-151.6785
1975.000000	100.1	-152.5332
2000.000000	100.1	-153.4235
2030.000000	100.2	-154.5204
2060.000000	100.2	-155.5759
2090.000000	100.2	-156.5424
2120.000000	100.2	-157.4170
2140.000000	100.2	-157.9460
2180.000000	100.1	-158.8536
2200.000000	100.1	-159.2345
2240.000000	100.0	-159.8111
2270.000000	99.9	-159.9799
2300.000000	99.8	-159.8408
2330.000000	99.7	-159.4193
2360.000000	99.8	-158.8784
2400.000000	99.9	-158.3656
2430.000000	100.0	-158.3433
2470.000000	100.2	-158.8798
2500.000000	100.3	-159.6432
2540.000000	100.4	-160.9210
2580.000000	100.4	-162.2579
2620.000000	100.3	-163.5486
2650.000000	100.3	-164.4524
2690.000000	100.2	-165.4933
2720.000000	100.1	-166.1018
2760.000000	99.9	-166.6855
2800.000000	99.8	-167.0644
2850.000000	99.6	-167.3039
2900.000000	99.4	-167.2991
2950.000000	99.3	-167.0264
3000.000000	99.2	-166.5408
3040.000000	99.1	-166.0849
3070.000000	99.0	-165.7234
3110.000000	99.0	-165.2219
3150.000000	98.9	-164.7381
3200.000000	98.9	-164.2511
3250.000000	98.9	-163.9288
3300.000000	98.9	-163.6777
3350.000000	98.8	-163.3095
3400.000000	98.7	-162.7039
3450.000000	98.7	-161.8490
3500.000000	98.6	-160.7807
3550.000000	98.7	-159.6034
3600.000000	98.7	-158.4667
3650.000000	98.8	-157.4770
3700.000000	99.0	-156.6497
3750.000000	99.1	-155.9361
3820.000000	99.3	-155.0681
3870.000000	99.4	-154.5025
3950.000000	99.7	-153.6485
4000.000000	99.9	-153.2384
4060.000000	100.1	-153.0085
4120.000000	100.4	-153.1023
4180.000000	100.6	-153.4898
4250.000000	100.9	-154.2546
4310.000000	101.1	-155.1093
4370.000000	101.4	-156.1621
4440.000000	101.6	-157.7748
4500.000000	101.8	-159.5639
4550.000000	101.9	-161.3308
4620.000000	102.1	-164.1525
4680.000000	102.1	-166.7697
4750.000000	102.1	-169.8815
4820.000000	102.0	-172.9516
4870.000000	101.8	-175.0796
4940.000000	101.6	-177.8945
5000.000000	101.3	179.9100
5080.000000	100.9	177.4232
5150.000000	100.5	175.7711
5220.000000	100.0	174.6270
5300.000000	99.5	173.8874
5380.000000	99.0	173.6951
5450.000000	98.5	173.9547
5520.000000	98.0	174.6234
5600.000000	97.6	175.8289
5700.000000	97.1	177.7059
5800.000000	96.6	179.7067
5900.000000	96.2	-178.1394
6000.000000	95.8	-175.6681
6080.000000	95.6	-173.4614
6150.000000	95.4	-171.4149
6220.000000	95.3	-169.3056
6300.000000	95.1	-166.8389
6400.000000	95.0	-163.6679
6500.000000	95.0	-160.4267
6600.000000	95.0	-157.1902
6700.000000	95.2	-154.0173
6800.000000	95.4	-150.9220
6900.000000	95.7	-147.9470
7000.000000	96.0	-145.1973
7100.000000	96.5	-142.7913
7200.000000	97.1	-140.8329
7300.000000	97.7	-139.4728
7400.000000	98.5	-138.9532
7500.000000	99.3	-139.5687
7620.000000	100.4	-142.2182
7750.000000	101.4	-147.9310
7880.000000	102.1	-156.7292
8000.000000	102.3	-166.7840
8120.000000	102.0	-177.0997
8250.000000	101.3	173.3057
8380.000000	100.2	166.5698
8500.000000	99.0	163.1040
8620.000000	97.7	161.8928
8750.000000	96.5	162.4666
8850.000000	95.6	163.8741
9000.000000	94.5	167.0792
9120.000000	93.8	170.2539
9250.000000	93.2	174.0508
9380.000000	92.8	178.0678
9500.000000	92.6	-178.1581
9620.000000	92.5	-174.4350
9750.000000	92.6	-170.5647
9880.000000	92.9	-167.0291
10000.000000	93.3	-164.2997
10150.000000	94.1	-162.0744
10300.000000	95.0	-161.9492
10440.000000	96.0	-164.6573
10600.000000	96.9	-171.8850
10750.000000	97.2	177.8179
10900.000000	96.9	166.4388
11060.000000	95.9	156.7657
11200.000000	94.6	152.4579
11380.000000	92.6	152.9038
11500.000000	91.3	156.0433
11720.000000	89.8	164.3094
11800.000000	89.5	167.2260
12060.000000	89.5	173.3986
12200.000000	89.7	174.3035
12410.000000	89.9	173.6437
12500.000000	89.9	173.0419
12650.000000	89.8	171.9736
12800.000000	89.8	170.8618
13150.000000	90.1	166.3087
13200.000000	90.1	165.1907
13400.000000	90.2	159.0809
13600.000000	90.1	150.5959
13800.000000	89.5	141.1445
14000.000000	88.5	132.8329
14300.000000	86.2	125.6252
14500.000000	84.5	124.5336
14750.000000	82.5	126.0919
15000.000000	80.9	129.2029
15250.000000	79.9	131.9911
15500.000000	79.6	132.1960
15750.000000	79.9	126.9563
16000.000000	80.0	114.1299
16250.000000	79.4	95.7416
16500.000000	77.7	78.7117
16750.000000	75.0	68.9604
17000.000000	71.6	67.1876
17250.000000	67.9	71.0931
17500.000000	63.9	78.3434
17750.000000	60.1	87.4310
18000.000000	56.5	97.3832
18250.000000	53.2	106.9531
18500.000000	50.1	112.7336
18750.000000	47.2	104.5359
19000.000000	44.4	56.6106
19250.000000	41.6	-79.6085
19500.000000	38.8	8.0303
19750.000000	36.5	0.2723
