* Measurement data measured by REW V5.20.4
* Source: Mic in at front panel (Pink) (Realtek(R) Audio), MICROPHONE (Master Volume), L, volume: 0.250
* Format: 256k Log Swept Sine, 1 sweep at -12.0 dBFS with no timing reference
* Dated: Jun 29, 2022 12:11:19 AM
* REW Settings:
*  C-weighting compensation: Off
*  Target level: 75.0 dB
* Note: BLON Fat Girl L
* Measurement: BLON Fat Girl L
* Smoothing: 1/12 octave
* Frequency Step: 1/48 octave
* Start Frequency: 20.000 Hz
*
* Freq(Hz)	SPL(dB)	Phase(degrees)
20.000000	102.053	-159.8087
20.299999	102.056	-160.3335
20.600000	102.053	-160.8513
20.900000	102.047	-161.3612
21.200001	102.039	-161.8620
21.400000	102.034	-162.1904
21.799999	102.027	-162.8329
22.000000	102.026	-163.1461
22.400000	102.025	-163.7552
22.700001	102.026	-164.1969
23.000000	102.029	-164.6270
23.299999	102.033	-165.0484
23.600000	102.038	-165.4639
24.000000	102.044	-166.0125
24.299999	102.048	-166.4206
24.700001	102.049	-166.9584
25.000000	102.047	-167.3537
25.400000	102.041	-167.8663
25.799999	102.035	-168.3609
26.200001	102.029	-168.8403
26.500000	102.025	-169.1932
26.900000	102.018	-169.6583
27.200001	102.010	-170.0037
27.600000	101.998	-170.4579
28.000000	101.984	-170.8998
28.500000	101.967	-171.4293
29.000000	101.955	-171.9365
29.500000	101.946	-172.4339
30.000000	101.939	-172.9334
30.400000	101.933	-173.3348
30.700001	101.928	-173.6339
31.100000	101.923	-174.0260
31.500000	101.916	-174.4086
32.000000	101.907	-174.8761
32.500000	101.894	-175.3380
33.000000	101.880	-175.7974
33.500000	101.868	-176.2526
34.000000	101.857	-176.6997
34.500000	101.847	-177.1361
35.000000	101.839	-177.5610
35.500000	101.834	-177.9753
36.000000	101.833	-178.3833
36.500000	101.833	-178.7910
37.000000	101.831	-179.2003
37.500000	101.823	-179.6049
38.200001	101.798	179.8563
38.700001	101.775	179.4969
39.500000	101.734	178.9473
40.000000	101.710	178.6069
40.599998	101.685	178.2000
41.200001	101.664	177.7995
41.799999	101.646	177.4056
42.500000	101.629	176.9499
43.099998	101.616	176.5627
43.700001	101.603	176.1819
44.400002	101.587	175.7467
45.000000	101.570	175.3800
45.500000	101.555	175.0793
46.200001	101.533	174.6677
46.799999	101.513	174.3243
47.500000	101.486	173.9333
48.200001	101.454	173.5502
48.700001	101.430	173.2803
49.400002	101.396	172.9067
50.000000	101.369	172.5909
50.799999	101.340	172.1799
51.500000	101.318	171.8330
52.200001	101.298	171.4984
53.000000	101.275	171.1268
53.799999	101.252	170.7614
54.500000	101.234	170.4442
55.200001	101.218	170.1290
56.000000	101.201	169.7689
57.000000	101.179	169.3127
58.000000	101.152	168.8441
59.000000	101.120	168.3694
60.000000	101.084	167.9016
60.799999	101.054	167.5371
61.500000	101.027	167.2274
62.200001	101.001	166.9285
63.000000	100.973	166.6007
64.000000	100.940	166.2053
65.000000	100.907	165.8158
66.000000	100.871	165.4280
67.000000	100.835	165.0427
68.000000	100.799	164.6607
69.000000	100.761	164.2842
70.000000	100.720	163.9200
71.000000	100.677	163.5796
72.000000	100.638	163.2614
73.000000	100.604	162.9504
74.000000	100.576	162.6379
75.000000	100.548	162.3262
76.199997	100.513	161.9549
77.500000	100.472	161.5459
78.800003	100.430	161.1248
80.000000	100.392	160.7231
81.199997	100.354	160.3036
82.500000	100.310	159.8314
83.800003	100.262	159.3608
85.000000	100.211	158.9512
86.199997	100.155	158.5798
87.500000	100.090	158.2204
88.500000	100.041	157.9630
90.000000	99.968	157.5879
91.199997	99.913	157.2955
92.500000	99.858	156.9958
93.800003	99.807	156.7165
95.000000	99.763	156.4683
96.199997	99.721	156.2216
97.500000	99.671	155.9551
98.800003	99.617	155.6909
100.000000	99.564	155.4516
101.500000	99.499	155.1667
103.000000	99.441	154.9008
104.400002	99.394	154.6645
106.000000	99.344	154.3945
107.500000	99.293	154.1267
109.000000	99.238	153.8362
110.599998	99.174	153.5037
112.000000	99.117	153.2049
113.800003	99.042	152.8414
115.000000	98.989	152.6375
117.199997	98.888	152.3878
118.000000	98.852	152.3296
120.599998	98.749	152.1224
122.000000	98.699	151.9630
124.099998	98.624	151.7094
125.000000	98.594	151.6015
126.500000	98.544	151.4131
128.000000	98.494	151.2068
131.500000	98.381	150.6813
132.000000	98.366	150.6050
134.000000	98.303	150.3251
136.000000	98.231	150.1336
138.000000	98.152	150.0063
140.000000	98.074	149.8678
143.000000	97.964	149.6104
145.000000	97.896	149.4467
147.500000	97.810	149.2623
150.000000	97.721	149.0689
152.500000	97.631	148.8867
155.000000	97.547	148.7608
157.500000	97.472	148.6707
160.000000	97.405	148.5538
162.500000	97.341	148.3885
165.000000	97.269	148.2035
167.500000	97.179	148.0422
170.000000	97.068	147.9359
172.500000	96.946	147.8765
175.000000	96.825	147.8332
177.500000	96.717	147.7847
180.000000	96.625	147.7288
182.500000	96.554	147.6683
185.000000	96.498	147.5990
187.500000	96.450	147.5208
190.000000	96.402	147.4435
192.500000	96.352	147.3736
195.000000	96.295	147.3151
197.500000	96.229	147.2833
200.000000	96.157	147.2876
203.000000	96.073	147.3210
206.000000	96.002	147.3574
209.000000	95.938	147.3795
212.000000	95.863	147.3636
214.000000	95.802	147.3315
218.000000	95.664	147.2798
220.000000	95.597	147.2795
224.000000	95.480	147.3148
227.000000	95.404	147.3471
230.000000	95.333	147.3759
233.000000	95.260	147.4037
236.000000	95.183	147.4355
240.000000	95.076	147.4848
243.000000	94.994	147.5276
247.000000	94.882	147.6074
250.000000	94.799	147.7009
254.000000	94.695	147.8809
258.000000	94.603	148.0843
262.000000	94.518	148.2439
265.000000	94.452	148.3320
269.000000	94.358	148.4534
272.000000	94.286	148.5709
276.000000	94.190	148.7625
280.000000	94.099	148.9760
285.000000	93.999	149.2444
290.000000	93.911	149.4592
295.000000	93.817	149.6139
300.000000	93.714	149.8045
304.000000	93.631	150.0168
307.000000	93.572	150.1996
311.000000	93.497	150.4521
315.000000	93.424	150.7002
320.000000	93.334	151.0032
325.000000	93.249	151.3028
330.000000	93.168	151.5897
335.000000	93.086	151.8547
340.000000	93.000	152.1022
345.000000	92.911	152.3528
350.000000	92.825	152.6273
355.000000	92.743	152.9306
360.000000	92.662	153.2532
365.000000	92.580	153.5839
370.000000	92.498	153.9192
375.000000	92.418	154.2586
382.000000	92.313	154.7369
387.000000	92.241	155.0798
395.000000	92.128	155.6366
400.000000	92.057	155.9898
406.000000	91.972	156.4122
412.000000	91.887	156.8329
418.000000	91.801	157.2697
425.000000	91.706	157.8224
431.000000	91.633	158.3233
437.000000	91.567	158.8223
444.000000	91.495	159.3829
450.000000	91.437	159.8283
455.000000	91.391	160.1573
462.000000	91.320	160.5670
468.000000	91.252	160.9244
475.000000	91.171	161.3892
482.000000	91.091	161.8856
487.000000	91.034	162.2447
494.000000	90.952	162.7687
500.000000	90.883	163.2509
508.000000	90.800	163.9095
515.000000	90.731	164.4709
522.000000	90.660	165.0277
530.000000	90.579	165.6887
538.000000	90.502	166.3773
545.000000	90.439	166.9859
552.000000	90.379	167.5959
560.000000	90.313	168.2856
570.000000	90.234	169.1281
580.000000	90.154	169.9731
590.000000	90.071	170.8392
600.000000	89.989	171.7366
608.000000	89.931	172.4650
615.000000	89.883	173.1001
622.000000	89.836	173.7433
630.000000	89.782	174.5076
640.000000	89.720	175.4984
650.000000	89.667	176.4987
660.000000	89.626	177.4812
670.000000	89.597	178.3902
680.000000	89.565	179.2253
690.000000	89.522	-179.9497
700.000000	89.471	-179.0854
710.000000	89.421	-178.1719
720.000000	89.375	-177.2313
730.000000	89.334	-176.2764
740.000000	89.295	-175.3053
750.000000	89.259	-174.3158
762.000000	89.219	-173.1052
775.000000	89.182	-171.7717
788.000000	89.153	-170.4202
800.000000	89.135	-169.1441
812.000000	89.129	-167.8428
825.000000	89.137	-166.4643
838.000000	89.152	-165.1777
850.000000	89.160	-164.0423
862.000000	89.162	-162.8971
875.000000	89.161	-161.6111
885.000000	89.164	-160.5874
900.000000	89.176	-159.0131
912.000000	89.192	-157.7193
925.000000	89.219	-156.2865
938.000000	89.258	-154.8407
950.000000	89.303	-153.5070
962.000000	89.357	-152.1696
975.000000	89.425	-150.7061
988.000000	89.507	-149.2269
1000.000000	89.594	-147.8492
1015.000000	89.725	-146.1122
1030.000000	89.885	-144.4044
1044.000000	90.065	-142.9242
1060.000000	90.294	-141.4551
1075.000000	90.519	-140.2921
1090.000000	90.749	-139.3040
1106.000000	90.998	-138.4341
1120.000000	91.214	-137.8254
1138.000000	91.481	-137.2305
1150.000000	91.647	-136.9328
1172.000000	91.929	-136.5383
1180.000000	92.026	-136.4301
1206.000000	92.331	-136.2198
1220.000000	92.483	-136.2233
1241.000000	92.682	-136.3316
1250.000000	92.755	-136.3863
1265.000000	92.864	-136.4606
1280.000000	92.958	-136.5005
1315.000000	93.148	-136.4379
1320.000000	93.173	-136.4148
1340.000000	93.269	-136.2948
1360.000000	93.358	-136.1156
1380.000000	93.442	-135.8483
1400.000000	93.530	-135.4757
1430.000000	93.691	-134.8302
1450.000000	93.812	-134.4423
1475.000000	93.971	-133.9969
1500.000000	94.140	-133.5414
1525.000000	94.323	-133.0374
1550.000000	94.520	-132.4609
1575.000000	94.720	-131.8295
1600.000000	94.894	-131.2389
1625.000000	94.999	-130.7447
1650.000000	95.021	-130.3038
1675.000000	94.990	-129.8665
1700.000000	94.958	-129.4197
1725.000000	94.963	-128.9699
1750.000000	95.020	-128.4980
1775.000000	95.132	-127.9663
1800.000000	95.291	-127.3857
1825.000000	95.482	-126.8336
1850.000000	95.687	-126.3599
1875.000000	95.895	-125.9581
1900.000000	96.103	-125.5979
1925.000000	96.311	-125.2452
1950.000000	96.523	-124.8886
1975.000000	96.743	-124.5664
2000.000000	96.967	-124.3304
2030.000000	97.233	-124.1720
2060.000000	97.489	-124.1147
2090.000000	97.734	-124.1332
2120.000000	97.969	-124.2125
2140.000000	98.121	-124.2800
2180.000000	98.425	-124.4113
2200.000000	98.583	-124.4983
2240.000000	98.908	-124.8025
2270.000000	99.150	-125.1543
2300.000000	99.384	-125.5786
2330.000000	99.616	-126.0470
2360.000000	99.850	-126.5815
2400.000000	100.163	-127.4841
2430.000000	100.390	-128.3237
2470.000000	100.672	-129.6319
2500.000000	100.862	-130.7264
2540.000000	101.086	-132.2655
2580.000000	101.283	-133.8400
2620.000000	101.461	-135.4834
2650.000000	101.576	-136.7737
2690.000000	101.702	-138.5257
2720.000000	101.778	-139.8243
2760.000000	101.860	-141.5373
2800.000000	101.922	-143.2685
2850.000000	101.962	-145.4621
2900.000000	101.953	-147.6178
2950.000000	101.891	-149.5982
3000.000000	101.793	-151.3432
3040.000000	101.698	-152.5887
3070.000000	101.620	-153.4258
3110.000000	101.511	-154.3869
3150.000000	101.406	-155.1828
3200.000000	101.287	-156.0217
3250.000000	101.175	-156.7575
3300.000000	101.057	-157.3926
3350.000000	100.929	-157.8645
3400.000000	100.794	-158.1544
3450.000000	100.651	-158.2744
3500.000000	100.500	-158.1948
3550.000000	100.354	-157.9133
3600.000000	100.226	-157.4932
3650.000000	100.118	-157.0000
3700.000000	100.027	-156.4465
3750.000000	99.953	-155.8022
3820.000000	99.890	-154.7339
3870.000000	99.875	-153.8343
3950.000000	99.912	-152.1056
4000.000000	99.983	-150.9153
4060.000000	100.107	-149.5117
4120.000000	100.258	-148.2146
4180.000000	100.423	-147.0602
4250.000000	100.620	-145.9063
4310.000000	100.795	-145.0332
4370.000000	100.991	-144.2610
4440.000000	101.255	-143.5776
4500.000000	101.508	-143.2374
4550.000000	101.734	-143.1334
4620.000000	102.068	-143.2647
4680.000000	102.369	-143.6138
4750.000000	102.745	-144.2866
4820.000000	103.151	-145.3323
4870.000000	103.454	-146.3794
4940.000000	103.879	-148.3315
5000.000000	104.225	-150.4849
5080.000000	104.624	-154.0029
5150.000000	104.895	-157.5744
5220.000000	105.075	-161.5009
5300.000000	105.153	-166.2783
5380.000000	105.076	-171.1369
5450.000000	104.875	-175.2225
5520.000000	104.556	-178.9208
5600.000000	104.076	177.5364
5700.000000	103.365	174.2621
5800.000000	102.605	172.2317
5900.000000	101.850	171.3298
6000.000000	101.145	171.4355
6080.000000	100.642	172.0942
6150.000000	100.256	172.9624
6220.000000	99.921	174.0087
6300.000000	99.595	175.3574
6400.000000	99.262	177.2301
6500.000000	99.008	179.2625
6600.000000	98.830	-178.6145
6700.000000	98.725	-176.4458
6800.000000	98.696	-174.2393
6900.000000	98.751	-172.0372
7000.000000	98.897	-169.9431
7100.000000	99.135	-168.0722
7200.000000	99.467	-166.5195
7300.000000	99.905	-165.4160
7400.000000	100.453	-164.9834
7500.000000	101.091	-165.5100
7620.000000	101.919	-167.8556
7750.000000	102.765	-173.1410
7880.000000	103.361	178.3061
8000.000000	103.515	168.0598
8120.000000	103.201	157.0865
8250.000000	102.348	146.4418
8380.000000	101.077	138.5699
8500.000000	99.680	134.1219
8620.000000	98.209	132.0424
8750.000000	96.656	131.8122
8850.000000	95.539	132.6947
9000.000000	94.032	135.2637
9120.000000	92.979	138.0727
9250.000000	91.978	141.6399
9380.000000	91.104	145.6235
9500.000000	90.405	149.5641
9620.000000	89.800	153.6760
9750.000000	89.240	158.2844
9880.000000	88.777	163.0139
10000.000000	88.435	167.4380
10150.000000	88.118	173.0137
10300.000000	87.925	178.6074
10440.000000	87.861	-176.2195
10600.000000	87.933	-170.4173
10750.000000	88.149	-165.1562
10900.000000	88.533	-160.1887
11060.000000	89.171	-155.3801
11200.000000	89.954	-151.8288
11380.000000	91.267	-148.7449
11500.000000	92.294	-148.1155
11720.000000	94.246	-151.6788
11800.000000	94.883	-154.9463
12060.000000	96.173	-173.1644
12200.000000	96.174	174.1714
12410.000000	95.200	157.1695
12500.000000	94.484	151.8352
12650.000000	93.024	146.0691
12800.000000	91.387	143.7820
13150.000000	87.704	147.1606
13200.000000	87.246	148.2419
13400.000000	85.632	153.3590
13600.000000	84.349	159.2756
13800.000000	83.348	165.5821
14000.000000	82.629	172.0226
14300.000000	82.201	-178.5131
14500.000000	82.422	-172.6998
14750.000000	83.275	-166.7224
15000.000000	84.635	-163.5177
15250.000000	86.160	-165.3090
15500.000000	87.336	-174.3383
15750.000000	87.649	169.8790
16000.000000	86.820	152.5956
16250.000000	84.957	140.1710
16500.000000	82.465	134.8500
16750.000000	79.836	135.1089
17000.000000	77.481	138.5695
17250.000000	75.618	143.3998
17500.000000	74.297	148.3312
17750.000000	73.456	152.3404
18000.000000	72.961	154.4568
18250.000000	72.622	153.8372
18500.000000	72.201	150.1979
18750.000000	71.459	144.3982
19000.000000	70.235	138.5490
19250.000000	68.476	135.3026
19500.000000	66.220	136.9437
19750.000000	63.562	144.9218
20000.000000	60.679	159.0642
