* Measurement data measured by REW V5.20
* Source: Mic in at front panel (Pink) (Realtek(R) Audio), MICROPHONE (Master Volume), L, volume: 0.250
* Format: 256k Log Swept Sine, 1 sweep at -12.0 dBFS with no timing reference
* Dated: Dec 12, 2021 3:54:26 PM
* REW Settings:
*  C-weighting compensation: Off
*  Target level: 75.0 dB
* Note: NRA Taped L
* Measurement: NRA Taped
* Smoothing: 1/12 octave
* Frequency Step: 1/48 octave
* Start Frequency: 20.000 Hz
*
* Freq(Hz)	SPL(dB)	Phase(degrees)
20.000000	101.0	63.7115
20.299999	101.1	63.0128
20.600000	101.1	62.3265
20.900000	101.2	61.6515
21.200001	101.3	60.9865
21.400000	101.3	60.5488
21.799999	101.4	59.6874
22.000000	101.4	59.2648
22.400000	101.5	58.4377
22.700001	101.6	57.8339
23.000000	101.6	57.2429
23.299999	101.7	56.6614
23.600000	101.7	56.0862
24.000000	101.8	55.3265
24.299999	101.8	54.7638
24.700001	101.9	54.0291
25.000000	101.9	53.4948
25.400000	102.0	52.8076
25.799999	102.0	52.1449
26.200001	102.1	51.4972
26.500000	102.1	51.0168
26.900000	102.2	50.3827
27.200001	102.2	49.9142
27.600000	102.3	49.3016
28.000000	102.3	48.7019
28.500000	102.4	47.9600
29.000000	102.4	47.2159
29.500000	102.5	46.4738
30.000000	102.5	45.7511
30.400000	102.6	45.1950
30.700001	102.6	44.7905
31.100000	102.6	44.2629
31.500000	102.7	43.7435
32.000000	102.7	43.1017
32.500000	102.8	42.4698
33.000000	102.8	41.8502
33.500000	102.8	41.2429
34.000000	102.9	40.6472
34.500000	102.9	40.0638
35.000000	102.9	39.4938
35.500000	103.0	38.9361
36.000000	103.0	38.3895
36.500000	103.0	37.8545
37.000000	103.1	37.3327
37.500000	103.1	36.8244
38.200001	103.1	36.1316
38.700001	103.2	35.6480
39.500000	103.2	34.8957
40.000000	103.2	34.4403
40.599998	103.2	33.9080
41.200001	103.3	33.3882
41.799999	103.3	32.8801
42.500000	103.3	32.3026
43.099998	103.3	31.8217
43.700001	103.4	31.3551
44.400002	103.4	30.8300
45.000000	103.4	30.3937
45.500000	103.4	30.0357
46.200001	103.4	29.5376
46.799999	103.4	29.1130
47.500000	103.5	28.6255
48.200001	103.5	28.1501
48.700001	103.5	27.8180
49.400002	103.5	27.3621
50.000000	103.5	26.9783
50.799999	103.5	26.4755
51.500000	103.6	26.0455
52.200001	103.6	25.6299
53.000000	103.6	25.1797
53.799999	103.6	24.7598
54.500000	103.6	24.4136
55.200001	103.6	24.0806
56.000000	103.7	23.7083
57.000000	103.7	23.2363
58.000000	103.7	22.7231
59.000000	103.7	22.1686
60.000000	103.8	21.6183
60.799999	103.8	21.1980
61.500000	103.8	20.8414
62.200001	103.8	20.4919
63.000000	103.8	20.0997
64.000000	103.8	19.6228
65.000000	103.8	19.1728
66.000000	103.8	18.7560
67.000000	103.8	18.3629
68.000000	103.8	17.9823
69.000000	103.8	17.6095
70.000000	103.8	17.2487
71.000000	103.8	16.9014
72.000000	103.8	16.5520
73.000000	103.9	16.1790
74.000000	103.9	15.7876
75.000000	103.9	15.4039
76.199997	103.9	14.9677
77.500000	103.9	14.5193
78.800003	103.9	14.0834
80.000000	103.9	13.6769
81.199997	103.9	13.2596
82.500000	103.9	12.7865
83.800003	103.9	12.3024
85.000000	103.9	11.8705
86.199997	103.9	11.4748
87.500000	103.9	11.0986
88.500000	103.9	10.8363
90.000000	103.9	10.4589
91.199997	103.9	10.1611
92.500000	103.9	9.8402
93.800003	103.9	9.5226
95.000000	103.9	9.2347
96.199997	103.9	8.9564
97.500000	103.9	8.6686
98.800003	103.9	8.3916
100.000000	103.9	8.1399
101.500000	103.9	7.8307
103.000000	103.9	7.5348
104.400002	103.9	7.2686
106.000000	103.9	6.9622
107.500000	103.9	6.6593
109.000000	103.9	6.3296
110.599998	103.9	5.9506
112.000000	103.9	5.6171
113.800003	103.9	5.2413
115.000000	103.8	5.0603
117.199997	103.8	4.9385
118.000000	103.8	4.9478
120.599998	103.7	4.8105
122.000000	103.7	4.4764
124.099998	103.7	3.8296
125.000000	103.8	3.5776
126.500000	103.8	3.2287
128.000000	103.8	2.9560
131.500000	103.7	2.4208
132.000000	103.7	2.3400
134.000000	103.7	1.9979
136.000000	103.7	1.6575
138.000000	103.7	1.3561
140.000000	103.7	1.0958
143.000000	103.7	0.7342
145.000000	103.7	0.4870
147.500000	103.6	0.1680
150.000000	103.6	-0.1520
152.500000	103.6	-0.4489
155.000000	103.6	-0.6987
157.500000	103.6	-0.9258
160.000000	103.6	-1.1790
162.500000	103.5	-1.4730
165.000000	103.5	-1.7916
167.500000	103.5	-2.1061
170.000000	103.5	-2.3919
172.500000	103.5	-2.6455
175.000000	103.4	-2.8843
177.500000	103.4	-3.1255
180.000000	103.4	-3.3767
182.500000	103.4	-3.6390
185.000000	103.4	-3.9114
187.500000	103.3	-4.1901
190.000000	103.3	-4.4684
192.500000	103.3	-4.7388
195.000000	103.3	-4.9952
197.500000	103.3	-5.2343
200.000000	103.2	-5.4541
203.000000	103.2	-5.6970
206.000000	103.2	-5.9380
209.000000	103.2	-6.1998
212.000000	103.1	-6.4777
214.000000	103.1	-6.6578
218.000000	103.1	-6.9663
220.000000	103.0	-7.0919
224.000000	103.0	-7.3237
227.000000	103.0	-7.5090
230.000000	102.9	-7.7086
233.000000	102.9	-7.9154
236.000000	102.9	-8.1260
240.000000	102.8	-8.4125
243.000000	102.8	-8.6254
247.000000	102.7	-8.8832
250.000000	102.7	-9.0389
254.000000	102.7	-9.1875
258.000000	102.6	-9.3101
262.000000	102.6	-9.4769
265.000000	102.6	-9.6353
269.000000	102.5	-9.8465
272.000000	102.5	-9.9805
276.000000	102.4	-10.1223
280.000000	102.4	-10.2383
285.000000	102.3	-10.3854
290.000000	102.3	-10.6014
295.000000	102.3	-10.9006
300.000000	102.2	-11.1946
304.000000	102.2	-11.3874
307.000000	102.1	-11.5110
311.000000	102.1	-11.6617
315.000000	102.0	-11.8026
320.000000	101.9	-11.9488
325.000000	101.9	-12.0444
330.000000	101.8	-12.1060
335.000000	101.7	-12.1621
340.000000	101.7	-12.2269
345.000000	101.6	-12.2922
350.000000	101.6	-12.3416
355.000000	101.5	-12.3702
360.000000	101.4	-12.3833
365.000000	101.4	-12.3852
370.000000	101.3	-12.3761
375.000000	101.2	-12.3538
382.000000	101.1	-12.2988
387.000000	101.1	-12.2430
395.000000	101.0	-12.1199
400.000000	100.9	-12.0192
406.000000	100.8	-11.8787
412.000000	100.7	-11.7197
418.000000	100.7	-11.5357
425.000000	100.6	-11.2904
431.000000	100.5	-11.0803
437.000000	100.5	-10.8989
444.000000	100.4	-10.7260
450.000000	100.4	-10.6101
455.000000	100.3	-10.5459
462.000000	100.3	-10.4879
468.000000	100.2	-10.4143
475.000000	100.1	-10.2627
482.000000	100.0	-10.0634
487.000000	100.0	-9.9091
494.000000	99.9	-9.6643
500.000000	99.8	-9.4148
508.000000	99.8	-9.0551
515.000000	99.7	-8.7431
522.000000	99.6	-8.4242
530.000000	99.5	-8.0228
538.000000	99.4	-7.5825
545.000000	99.4	-7.1822
552.000000	99.3	-6.7723
560.000000	99.2	-6.3019
570.000000	99.2	-5.7196
580.000000	99.1	-5.1179
590.000000	99.0	-4.4792
600.000000	98.9	-3.7943
608.000000	98.9	-3.2257
615.000000	98.8	-2.7240
622.000000	98.8	-2.2086
630.000000	98.7	-1.5833
640.000000	98.6	-0.7555
650.000000	98.6	0.0933
660.000000	98.6	0.9353
670.000000	98.5	1.7125
680.000000	98.5	2.4200
690.000000	98.5	3.1168
700.000000	98.4	3.8485
710.000000	98.4	4.6240
720.000000	98.4	5.4227
730.000000	98.3	6.2328
740.000000	98.3	7.0558
750.000000	98.3	7.8934
762.000000	98.3	8.9153
775.000000	98.3	10.0326
788.000000	98.3	11.1472
800.000000	98.3	12.1817
812.000000	98.3	13.2302
825.000000	98.3	14.3527
838.000000	98.4	15.4213
850.000000	98.4	16.3702
862.000000	98.4	17.3178
875.000000	98.5	18.3715
885.000000	98.5	19.2013
900.000000	98.5	20.4401
912.000000	98.6	21.4130
925.000000	98.7	22.4420
938.000000	98.8	23.4294
950.000000	98.8	24.2955
962.000000	98.9	25.1258
975.000000	99.0	25.9998
988.000000	99.1	26.8550
1000.000000	99.2	27.6347
1015.000000	99.3	28.6115
1030.000000	99.5	29.5700
1044.000000	99.6	30.3869
1060.000000	99.8	31.1721
1075.000000	99.9	31.7941
1090.000000	100.1	32.3602
1106.000000	100.2	32.9239
1120.000000	100.4	33.3884
1138.000000	100.6	33.9557
1150.000000	100.7	34.3203
1172.000000	100.9	34.9694
1180.000000	101.0	35.2002
1206.000000	101.3	35.8620
1220.000000	101.4	36.1076
1241.000000	101.6	36.3425
1250.000000	101.7	36.4163
1265.000000	101.9	36.5246
1280.000000	102.0	36.6221
1315.000000	102.4	36.8074
1320.000000	102.4	36.8242
1340.000000	102.7	36.8581
1360.000000	102.9	36.8527
1380.000000	103.1	36.8369
1400.000000	103.3	36.8290
1430.000000	103.7	36.7234
1450.000000	103.9	36.4913
1475.000000	104.2	36.0302
1500.000000	104.5	35.4356
1525.000000	104.7	34.7504
1550.000000	104.9	34.0046
1575.000000	105.2	33.1875
1600.000000	105.4	32.2133
1625.000000	105.5	31.0382
1650.000000	105.7	29.7194
1675.000000	105.8	28.3215
1700.000000	106.0	26.8736
1725.000000	106.0	25.3847
1750.000000	106.1	23.8895
1775.000000	106.2	22.4420
1800.000000	106.2	21.0482
1825.000000	106.2	19.6495
1850.000000	106.2	18.2145
1875.000000	106.2	16.7662
1900.000000	106.2	15.3466
1925.000000	106.1	13.9958
1950.000000	106.1	12.7291
1975.000000	106.1	11.5117
2000.000000	106.1	10.2968
2030.000000	106.0	8.8400
2060.000000	105.9	7.4307
2090.000000	105.8	6.1098
2120.000000	105.7	4.9111
2140.000000	105.6	4.2106
2180.000000	105.4	3.1213
2200.000000	105.3	2.7274
2240.000000	105.1	2.1914
2270.000000	104.9	2.0029
2300.000000	104.8	1.9865
2330.000000	104.7	2.0789
2360.000000	104.6	2.1456
2400.000000	104.6	1.9784
2430.000000	104.5	1.6378
2470.000000	104.4	1.0316
2500.000000	104.3	0.5755
2540.000000	104.1	0.1151
2580.000000	104.0	-0.0950
2620.000000	103.8	-0.1052
2650.000000	103.6	-0.0176
2690.000000	103.5	0.2354
2720.000000	103.3	0.5415
2760.000000	103.2	1.0678
2800.000000	103.1	1.6514
2850.000000	102.9	2.3992
2900.000000	102.8	3.1757
2950.000000	102.6	4.0621
3000.000000	102.5	5.0739
3040.000000	102.4	5.9337
3070.000000	102.4	6.6112
3110.000000	102.3	7.5800
3150.000000	102.3	8.6110
3200.000000	102.2	9.9124
3250.000000	102.2	11.1583
3300.000000	102.2	12.3414
3350.000000	102.2	13.5157
3400.000000	102.3	14.6910
3450.000000	102.3	15.8473
3500.000000	102.4	17.0091
3550.000000	102.5	18.1812
3600.000000	102.6	19.3129
3650.000000	102.7	20.3606
3700.000000	102.8	21.3406
3750.000000	103.0	22.3131
3820.000000	103.1	23.7077
3870.000000	103.3	24.7281
3950.000000	103.6	26.3387
4000.000000	103.9	27.1968
4060.000000	104.2	27.9211
4120.000000	104.5	28.2658
4180.000000	104.9	28.2378
4250.000000	105.3	27.7415
4310.000000	105.7	26.9460
4370.000000	106.0	25.7765
4440.000000	106.4	23.8103
4500.000000	106.7	21.5471
4550.000000	106.9	19.2800
4620.000000	107.0	15.6476
4680.000000	107.1	12.3278
4750.000000	106.9	8.5842
4820.000000	106.7	5.3375
4870.000000	106.5	3.4702
4940.000000	106.1	1.5387
5000.000000	105.8	0.3678
5080.000000	105.5	-0.9017
5150.000000	105.2	-1.9814
5220.000000	104.9	-3.0371
5300.000000	104.5	-4.0242
5380.000000	104.1	-4.5613
5450.000000	103.6	-4.5657
5520.000000	103.2	-4.0933
5600.000000	102.7	-2.9879
5700.000000	102.2	-0.9015
5800.000000	101.7	1.7253
5900.000000	101.4	4.5793
6000.000000	101.1	7.5350
6080.000000	100.9	10.0356
6150.000000	100.8	12.3335
6220.000000	100.7	14.7023
6300.000000	100.7	17.4703
6400.000000	100.7	21.0128
6500.000000	100.7	24.6133
6600.000000	100.9	28.1992
6700.000000	101.2	31.7161
6800.000000	101.5	35.1500
6900.000000	102.0	38.4438
7000.000000	102.6	41.4640
7100.000000	103.3	44.0588
7200.000000	104.1	46.0825
7300.000000	105.1	47.3100
7400.000000	106.2	47.3607
7500.000000	107.3	45.7262
7620.000000	108.7	40.7882
7750.000000	109.8	31.1329
7880.000000	110.4	17.6876
8000.000000	110.3	4.3392
8120.000000	109.5	-7.0675
8250.000000	108.3	-15.4345
8380.000000	106.8	-19.6396
8500.000000	105.5	-20.6405
8620.000000	104.2	-19.7550
8750.000000	103.1	-17.4629
8850.000000	102.4	-15.0975
9000.000000	101.6	-10.9451
9120.000000	101.2	-7.3556
9250.000000	100.9	-3.3822
9380.000000	100.7	0.6168
9500.000000	100.7	4.3784
9620.000000	100.9	8.4575
9750.000000	101.6	13.7377
9880.000000	103.1	19.8893
10000.000000	105.0	24.4967
10150.000000	107.4	23.5184
10300.000000	109.1	11.3498
10440.000000	109.7	-7.4670
10600.000000	109.1	-29.8065
10750.000000	107.7	-45.1396
10900.000000	105.6	-53.2316
11060.000000	103.1	-55.5032
11200.000000	101.0	-54.0571
11380.000000	98.7	-49.5822
11500.000000	97.4	-45.6656
11720.000000	95.5	-37.4769
11800.000000	95.0	-34.3064
12060.000000	93.8	-23.6658
12200.000000	93.5	-17.8727
12410.000000	93.3	-9.3138
12500.000000	93.4	-5.7676
12650.000000	93.7	-0.1570
12800.000000	94.4	4.8397
13150.000000	97.0	11.0750
13200.000000	97.4	10.8771
13400.000000	99.1	5.7620
13600.000000	100.2	-7.1232
13800.000000	100.3	-25.2427
14000.000000	99.3	-42.0690
14300.000000	96.3	-54.7514
14500.000000	93.7	-55.0327
14750.000000	90.5	-49.9568
15000.000000	87.7	-41.8489
15250.000000	85.5	-32.4286
15500.000000	83.9	-22.5554
15750.000000	82.8	-12.7061
16000.000000	82.1	-3.0380
16250.000000	81.6	6.5672
16500.000000	81.3	16.2250
16750.000000	81.4	25.8462
17000.000000	81.9	35.0354
17250.000000	82.8	43.0048
17500.000000	84.1	48.5339
17750.000000	85.5	50.1295
18000.000000	86.6	46.7672
18250.000000	87.2	39.3044
18500.000000	87.2	30.5744
18750.000000	86.6	23.3510
19000.000000	85.8	18.6718
19250.000000	84.9	15.9178
19500.000000	84.2	13.8615
19750.000000	83.8	11.8452
