* Measurement data measured by REW V5.20.13
* Source: EXCL: Mic in at front panel (Pink) (Realtek(R) Audio), MICROPHONE (Master Volume), L, volume: 0.250
* Format: 256k Log Swept Sine, 1 sweep at -12.0 dBFS with no timing reference
* Dated: Nov 19, 2022 1:34:27 PM
* REW Settings:
*  C-weighting compensation: Off
*  Target level: 75.0 dB
* Note: Dunu Talos L
* Measurement: Dunu Talos L
* Smoothing: 1/12 octave
* Frequency Step: 1/48 octave
* Start Frequency: 20.000 Hz
*
* Freq(Hz)	SPL(dB)	Phase(degrees)
20.000000	88.914	-156.8460
20.299999	88.924	-157.5634
20.600000	88.933	-158.2583
20.900000	88.940	-158.9307
21.200001	88.946	-159.5852
21.400000	88.950	-160.0149
21.799999	88.957	-160.8616
22.000000	88.959	-161.2790
22.400000	88.961	-162.1004
22.700001	88.961	-162.7023
23.000000	88.960	-163.2917
23.299999	88.957	-163.8700
23.600000	88.953	-164.4380
24.000000	88.946	-165.1788
24.299999	88.939	-165.7201
24.700001	88.928	-166.4201
25.000000	88.921	-166.9305
25.400000	88.911	-167.5982
25.799999	88.902	-168.2612
26.200001	88.892	-168.9229
26.500000	88.883	-169.4138
26.900000	88.869	-170.0524
27.200001	88.859	-170.5151
27.600000	88.846	-171.1130
28.000000	88.835	-171.7033
28.500000	88.824	-172.4548
29.000000	88.809	-173.2242
29.500000	88.785	-173.9801
30.000000	88.756	-174.6818
30.400000	88.732	-175.1964
30.700001	88.714	-175.5615
31.100000	88.693	-176.0349
31.500000	88.673	-176.5021
32.000000	88.646	-177.0748
32.500000	88.615	-177.6166
33.000000	88.586	-178.1165
33.500000	88.560	-178.5890
34.000000	88.538	-179.0631
34.500000	88.517	-179.5562
35.000000	88.493	179.9366
35.500000	88.467	179.4315
36.000000	88.437	178.9406
36.500000	88.406	178.4661
37.000000	88.374	178.0067
37.500000	88.341	177.5634
38.200001	88.293	176.9788
38.700001	88.258	176.5952
39.500000	88.207	176.0434
40.000000	88.179	175.7224
40.599998	88.151	175.3331
41.200001	88.126	174.9176
41.799999	88.099	174.4738
42.500000	88.061	173.9347
43.099998	88.024	173.4684
43.700001	87.981	173.0126
44.400002	87.925	172.5175
45.000000	87.876	172.1382
45.500000	87.838	171.8473
46.200001	87.791	171.4504
46.799999	87.754	171.0995
47.500000	87.710	170.6847
48.200001	87.664	170.2952
48.700001	87.631	170.0408
49.400002	87.589	169.7047
50.000000	87.552	169.4221
50.799999	87.500	169.0707
51.500000	87.453	168.8183
52.200001	87.411	168.5993
53.000000	87.371	168.3134
53.799999	87.327	167.9568
54.500000	87.282	167.6288
55.200001	87.233	167.3189
56.000000	87.178	166.9786
57.000000	87.115	166.5432
58.000000	87.055	166.0972
59.000000	86.995	165.6699
60.000000	86.936	165.3028
60.799999	86.892	165.0523
61.500000	86.857	164.8423
62.200001	86.821	164.6308
63.000000	86.775	164.3990
64.000000	86.711	164.1427
65.000000	86.645	163.9113
66.000000	86.578	163.6828
67.000000	86.511	163.4482
68.000000	86.445	163.2122
69.000000	86.380	162.9896
70.000000	86.319	162.7899
71.000000	86.262	162.6107
72.000000	86.209	162.4495
73.000000	86.157	162.3015
74.000000	86.107	162.1491
75.000000	86.056	161.9839
76.199997	85.995	161.7840
77.500000	85.936	161.5540
78.800003	85.883	161.2625
80.000000	85.828	160.9609
81.199997	85.763	160.7243
82.500000	85.691	160.5870
83.800003	85.626	160.4897
85.000000	85.564	160.3820
86.199997	85.496	160.2710
87.500000	85.419	160.1649
88.500000	85.360	160.0940
90.000000	85.275	160.0110
91.199997	85.212	159.9687
92.500000	85.149	159.9315
93.800003	85.089	159.8868
95.000000	85.034	159.8406
96.199997	84.976	159.8038
97.500000	84.912	159.7825
98.800003	84.849	159.7724
100.000000	84.793	159.7584
101.500000	84.723	159.7267
103.000000	84.654	159.7028
104.400002	84.592	159.7132
106.000000	84.527	159.7383
107.500000	84.469	159.7203
109.000000	84.408	159.6433
110.599998	84.339	159.5322
112.000000	84.279	159.4534
113.800003	84.196	159.4632
115.000000	84.127	159.6534
117.199997	84.000	160.6149
118.000000	83.973	161.0798
120.599998	83.957	161.9457
122.000000	83.927	161.8299
124.099998	83.833	161.5039
125.000000	83.794	161.4160
126.500000	83.747	161.3171
128.000000	83.714	161.2290
131.500000	83.628	161.1401
132.000000	83.614	161.1378
134.000000	83.562	161.1083
136.000000	83.519	161.0401
138.000000	83.483	160.9736
140.000000	83.443	160.9862
143.000000	83.338	161.1392
145.000000	83.246	161.3126
147.500000	83.176	161.5512
150.000000	83.174	161.7210
152.500000	83.159	161.9925
155.000000	83.091	162.5152
157.500000	83.011	162.9723
160.000000	82.945	163.1243
162.500000	82.888	163.1857
165.000000	82.821	163.3625
167.500000	82.746	163.5982
170.000000	82.677	163.7727
172.500000	82.624	163.9242
175.000000	82.591	164.1409
177.500000	82.571	164.4324
180.000000	82.537	164.7748
182.500000	82.445	165.0284
185.000000	82.270	164.9936
187.500000	82.054	164.8616
190.000000	81.923	165.0654
192.500000	81.940	165.5226
195.000000	82.031	165.9675
197.500000	82.117	166.2838
200.000000	82.167	166.4511
203.000000	82.182	166.6222
206.000000	82.178	166.8386
209.000000	82.178	167.0149
212.000000	82.171	167.1729
214.000000	82.154	167.2880
218.000000	82.101	167.5298
220.000000	82.076	167.6733
224.000000	82.040	168.0330
227.000000	82.015	168.3202
230.000000	81.988	168.5789
233.000000	81.960	168.8043
236.000000	81.933	169.0111
240.000000	81.893	169.2962
243.000000	81.859	169.5395
247.000000	81.807	169.9258
250.000000	81.767	170.2602
254.000000	81.723	170.6879
258.000000	81.696	171.0237
262.000000	81.679	171.3063
265.000000	81.666	171.5119
269.000000	81.642	171.8011
272.000000	81.620	172.0399
276.000000	81.593	172.3846
280.000000	81.571	172.7436
285.000000	81.554	173.1807
290.000000	81.547	173.5324
295.000000	81.535	173.7826
300.000000	81.509	174.0297
304.000000	81.485	174.2632
307.000000	81.467	174.4528
311.000000	81.443	174.7082
315.000000	81.420	174.9618
320.000000	81.387	175.2979
325.000000	81.356	175.6721
330.000000	81.331	176.0615
335.000000	81.312	176.4364
340.000000	81.295	176.7865
345.000000	81.277	177.1238
350.000000	81.257	177.4643
355.000000	81.238	177.8095
360.000000	81.220	178.1555
365.000000	81.204	178.5027
370.000000	81.188	178.8549
375.000000	81.173	179.2131
382.000000	81.153	179.7179
387.000000	81.141	-179.9230
395.000000	81.124	-179.3534
400.000000	81.116	-179.0024
406.000000	81.107	-178.5917
412.000000	81.098	-178.1914
418.000000	81.087	-177.7848
425.000000	81.076	-177.2795
431.000000	81.072	-176.8272
437.000000	81.073	-176.3835
444.000000	81.081	-175.8959
450.000000	81.092	-175.5188
455.000000	81.101	-175.2491
462.000000	81.105	-174.9258
468.000000	81.099	-174.6468
475.000000	81.089	-174.2792
482.000000	81.079	-173.8854
487.000000	81.072	-173.6025
494.000000	81.061	-173.1882
500.000000	81.054	-172.8018
508.000000	81.050	-172.2735
515.000000	81.051	-171.8293
522.000000	81.050	-171.3965
530.000000	81.047	-170.8882
538.000000	81.047	-170.3615
545.000000	81.050	-169.9007
552.000000	81.056	-169.4454
560.000000	81.065	-168.9392
570.000000	81.077	-168.3294
580.000000	81.086	-167.7179
590.000000	81.094	-167.0933
600.000000	81.103	-166.4473
608.000000	81.114	-165.9257
615.000000	81.125	-165.4749
622.000000	81.134	-165.0183
630.000000	81.146	-164.4695
640.000000	81.168	-163.7508
650.000000	81.200	-163.0257
660.000000	81.243	-162.3217
670.000000	81.293	-161.6978
680.000000	81.340	-161.1596
690.000000	81.378	-160.6464
700.000000	81.411	-160.1100
710.000000	81.444	-159.5406
720.000000	81.480	-158.9587
730.000000	81.517	-158.3774
740.000000	81.556	-157.7940
750.000000	81.597	-157.2036
762.000000	81.649	-156.4838
775.000000	81.710	-155.6959
788.000000	81.777	-154.9059
800.000000	81.844	-154.1653
812.000000	81.922	-153.4182
825.000000	82.020	-152.6625
838.000000	82.123	-152.0232
850.000000	82.211	-151.5084
862.000000	82.292	-151.0082
875.000000	82.377	-150.4511
885.000000	82.443	-150.0112
900.000000	82.545	-149.3536
912.000000	82.629	-148.8296
925.000000	82.724	-148.2666
938.000000	82.824	-147.7274
950.000000	82.918	-147.2628
962.000000	83.011	-146.8237
975.000000	83.111	-146.3622
988.000000	83.211	-145.9079
1000.000000	83.303	-145.4870
1015.000000	83.422	-144.9412
1030.000000	83.552	-144.3926
1044.000000	83.685	-143.9382
1060.000000	83.839	-143.5425
1075.000000	83.976	-143.2616
1090.000000	84.104	-143.0141
1106.000000	84.236	-142.7655
1120.000000	84.348	-142.5558
1138.000000	84.487	-142.2853
1150.000000	84.579	-142.0993
1172.000000	84.749	-141.7379
1180.000000	84.812	-141.6001
1206.000000	85.033	-141.1988
1220.000000	85.156	-141.0667
1241.000000	85.330	-140.9662
1250.000000	85.400	-140.9367
1265.000000	85.511	-140.8850
1280.000000	85.618	-140.8222
1315.000000	85.863	-140.6315
1320.000000	85.899	-140.6036
1340.000000	86.039	-140.4977
1360.000000	86.175	-140.3864
1380.000000	86.310	-140.2388
1400.000000	86.450	-140.0356
1430.000000	86.688	-139.7345
1450.000000	86.857	-139.6339
1475.000000	87.065	-139.6090
1500.000000	87.268	-139.6426
1525.000000	87.468	-139.6974
1550.000000	87.669	-139.7506
1575.000000	87.882	-139.8225
1600.000000	88.107	-140.0091
1625.000000	88.326	-140.3594
1650.000000	88.528	-140.8131
1675.000000	88.715	-141.2939
1700.000000	88.890	-141.7575
1725.000000	89.058	-142.1861
1750.000000	89.223	-142.5552
1775.000000	89.395	-142.8431
1800.000000	89.586	-143.0892
1825.000000	89.798	-143.3977
1850.000000	90.021	-143.8350
1875.000000	90.246	-144.3999
1900.000000	90.469	-145.0624
1925.000000	90.690	-145.7892
1950.000000	90.916	-146.5721
1975.000000	91.151	-147.4542
2000.000000	91.389	-148.4917
2030.000000	91.667	-149.9576
2060.000000	91.931	-151.6336
2090.000000	92.178	-153.4946
2120.000000	92.406	-155.5242
2140.000000	92.546	-156.9527
2180.000000	92.811	-159.9724
2200.000000	92.939	-161.6069
2240.000000	93.180	-165.3039
2270.000000	93.324	-168.5654
2300.000000	93.408	-172.3114
2330.000000	93.396	-176.5178
2360.000000	93.243	179.0134
2400.000000	92.745	173.5848
2430.000000	92.156	170.9451
2470.000000	91.263	170.2036
2500.000000	90.703	171.2688
2540.000000	90.257	173.3421
2580.000000	90.095	174.9258
2620.000000	90.057	175.6235
2650.000000	90.041	175.6789
2690.000000	89.993	175.4222
2720.000000	89.935	175.1526
2760.000000	89.840	174.8132
2800.000000	89.734	174.5341
2850.000000	89.593	174.3137
2900.000000	89.455	174.2822
2950.000000	89.340	174.4622
3000.000000	89.271	174.7237
3040.000000	89.247	174.8429
3070.000000	89.237	174.8513
3110.000000	89.228	174.7806
3150.000000	89.223	174.6430
3200.000000	89.223	174.3755
3250.000000	89.227	173.9883
3300.000000	89.232	173.4794
3350.000000	89.235	172.8666
3400.000000	89.239	172.1443
3450.000000	89.243	171.3029
3500.000000	89.256	170.3412
3550.000000	89.297	169.1368
3600.000000	89.373	167.3514
3650.000000	89.450	164.4906
3700.000000	89.423	160.2071
3750.000000	89.128	154.9956
3820.000000	87.978	150.2073
3870.000000	86.700	152.0545
3950.000000	85.030	162.7428
4000.000000	84.814	169.6073
4060.000000	85.154	174.8944
4120.000000	85.630	176.7350
4180.000000	85.918	176.0763
4250.000000	85.835	174.4680
4310.000000	85.482	174.5450
4370.000000	85.128	176.5024
4440.000000	84.958	179.7925
4500.000000	85.009	-177.7218
4550.000000	85.112	-176.1981
4620.000000	85.248	-174.7885
4680.000000	85.311	-173.8609
4750.000000	85.344	-172.5347
4820.000000	85.430	-170.7696
4870.000000	85.567	-169.5282
4940.000000	85.836	-168.3836
5000.000000	86.075	-168.1664
5080.000000	86.322	-168.8758
5150.000000	86.419	-170.2055
5220.000000	86.344	-171.8078
5300.000000	85.988	-172.7860
5380.000000	85.451	-171.1920
5450.000000	85.113	-167.6736
5520.000000	85.074	-163.6575
5600.000000	85.287	-159.9075
5700.000000	85.681	-156.5211
5800.000000	86.141	-153.9896
5900.000000	86.634	-152.2582
6000.000000	87.124	-151.1857
6080.000000	87.513	-150.6918
6150.000000	87.851	-150.5093
6220.000000	88.180	-150.5633
6300.000000	88.541	-150.8723
6400.000000	88.979	-151.5106
6500.000000	89.426	-152.5024
6600.000000	89.857	-154.1866
6700.000000	90.202	-156.6036
6800.000000	90.431	-159.4780
6900.000000	90.512	-162.5868
7000.000000	90.382	-165.2201
7100.000000	90.088	-165.8951
7200.000000	89.945	-163.9183
7300.000000	90.291	-160.8641
7400.000000	91.064	-159.2561
7500.000000	91.945	-160.4475
7620.000000	92.843	-165.4186
7750.000000	93.468	-174.0565
7880.000000	93.612	175.0857
8000.000000	93.160	165.1078
8120.000000	92.077	158.8236
8250.000000	90.503	159.4254
8380.000000	89.418	165.5032
8500.000000	89.420	170.3774
8620.000000	89.943	171.1834
8750.000000	90.381	167.5114
8850.000000	90.383	163.1888
9000.000000	89.852	158.2764
9120.000000	89.299	157.0883
9250.000000	88.942	156.8505
9380.000000	88.795	155.7271
9500.000000	88.653	153.8827
9620.000000	88.465	151.9193
9750.000000	88.266	149.7274
9880.000000	88.081	147.1129
10000.000000	87.890	144.1846
10150.000000	87.585	139.8399
10300.000000	87.179	134.6575
10440.000000	86.642	129.0807
10600.000000	85.704	122.8237
10750.000000	84.420	119.0989
10900.000000	82.826	119.0533
11060.000000	81.104	122.5042
11200.000000	79.873	126.5613
11380.000000	78.758	130.8842
11500.000000	78.171	132.9279
11720.000000	77.094	136.0806
11800.000000	76.677	137.3810
12060.000000	75.361	142.2653
12200.000000	74.715	144.6413
12410.000000	73.666	147.8433
12500.000000	73.134	149.5407
12650.000000	72.122	153.5631
12800.000000	71.020	159.4971
13150.000000	68.811	179.6982
13200.000000	68.602	-176.8993
13400.000000	68.186	-162.6816
13600.000000	68.517	-148.7509
13800.000000	69.418	-136.8880
14000.000000	70.526	-128.1643
14300.000000	72.100	-120.0249
14500.000000	73.121	-116.2101
14750.000000	74.493	-112.9070
15000.000000	75.780	-112.5225
15250.000000	76.843	-114.2603
15500.000000	77.926	-116.6624
15750.000000	79.090	-121.2228
16000.000000	80.042	-129.7807
16250.000000	80.488	-142.0900
16500.000000	80.276	-155.9465
16750.000000	79.412	-168.5248
17000.000000	78.008	-177.7985
17250.000000	76.229	177.0007
17500.000000	74.250	175.7357
17750.000000	72.252	177.7526
18000.000000	70.431	-178.1069
18250.000000	68.936	-173.1267
18500.000000	67.803	-168.2433
18750.000000	66.971	-163.9323
19000.000000	66.353	-160.3898
19250.000000	65.887	-157.8352
19500.000000	65.521	-156.6983
19750.000000	65.165	-157.4428
20000.000000	64.694	-160.2163
