* Measurement data measured by REW V5.20.11
* Source: Mic in at front panel (Pink) (Realtek(R) Audio), MICROPHONE (Master Volume), L, volume: 0.250
* Format: 256k Log Swept Sine, 1 sweep at -12.0 dBFS with no timing reference
* Dated: Sep 15, 2022 4:12:45 PM
* REW Settings:
*  C-weighting compensation: Off
*  Target level: 75.0 dB
* Note: KBEAR Dumpling R
* Measurement: KBEAR Dumpling R
* Smoothing: 1/12 octave
* Frequency Step: 1/48 octave
* Start Frequency: 20.000 Hz
*
* Freq(Hz)	SPL(dB)	Phase(degrees)
20.000000	95.403	-168.4286
20.299999	95.413	-168.9006
20.600000	95.422	-169.3713
20.900000	95.429	-169.8378
21.200001	95.434	-170.2967
21.400000	95.437	-170.5976
21.799999	95.441	-171.1870
22.000000	95.442	-171.4757
22.400000	95.444	-172.0417
22.700001	95.444	-172.4565
23.000000	95.444	-172.8638
23.299999	95.444	-173.2648
23.600000	95.444	-173.6612
24.000000	95.444	-174.1843
24.299999	95.443	-174.5732
24.700001	95.441	-175.0856
25.000000	95.438	-175.4639
25.400000	95.435	-175.9592
25.799999	95.431	-176.4449
26.200001	95.427	-176.9232
26.500000	95.424	-177.2775
26.900000	95.419	-177.7431
27.200001	95.414	-178.0858
27.600000	95.408	-178.5328
28.000000	95.401	-178.9693
28.500000	95.393	-179.5045
29.000000	95.385	179.9678
29.500000	95.375	179.4491
30.000000	95.363	178.9442
30.400000	95.353	178.5515
30.700001	95.346	178.2627
31.100000	95.337	177.8820
31.500000	95.328	177.5034
32.000000	95.316	177.0305
32.500000	95.303	176.5590
33.000000	95.289	176.0917
33.500000	95.274	175.6310
34.000000	95.257	175.1775
34.500000	95.241	174.7315
35.000000	95.223	174.2939
35.500000	95.205	173.8653
36.000000	95.186	173.4458
36.500000	95.168	173.0347
37.000000	95.148	172.6314
37.500000	95.129	172.2355
38.200001	95.101	171.6944
38.700001	95.080	171.3185
39.500000	95.047	170.7361
40.000000	95.026	170.3818
40.599998	95.001	169.9627
41.200001	94.975	169.5488
41.799999	94.948	169.1424
42.500000	94.917	168.6796
43.099998	94.890	168.2901
43.700001	94.863	167.9044
44.400002	94.830	167.4608
45.000000	94.802	167.0894
45.500000	94.778	166.7868
46.200001	94.746	166.3716
46.799999	94.718	166.0216
47.500000	94.685	165.6196
48.200001	94.652	165.2238
48.700001	94.628	164.9449
49.400002	94.594	164.5617
50.000000	94.564	164.2424
50.799999	94.524	163.8308
51.500000	94.489	163.4821
52.200001	94.455	163.1412
53.000000	94.417	162.7588
53.799999	94.379	162.3834
54.500000	94.347	162.0621
55.200001	94.315	161.7482
56.000000	94.281	161.3945
57.000000	94.241	160.9511
58.000000	94.201	160.4977
59.000000	94.158	160.0362
60.000000	94.110	159.5875
60.799999	94.070	159.2467
61.500000	94.035	158.9578
62.200001	93.998	158.6733
63.000000	93.957	158.3531
64.000000	93.904	157.9642
65.000000	93.851	157.5896
66.000000	93.799	157.2252
67.000000	93.749	156.8688
68.000000	93.699	156.5203
69.000000	93.650	156.1785
70.000000	93.601	155.8430
71.000000	93.552	155.5156
72.000000	93.502	155.1993
73.000000	93.454	154.8932
74.000000	93.407	154.5933
75.000000	93.360	154.2982
76.199997	93.306	153.9541
77.500000	93.250	153.5866
78.800003	93.197	153.2025
80.000000	93.145	152.8296
81.199997	93.091	152.4476
82.500000	93.029	152.0225
83.800003	92.961	151.5944
85.000000	92.894	151.2199
86.199997	92.825	150.8827
87.500000	92.749	150.5613
88.500000	92.692	150.3389
90.000000	92.608	150.0325
91.199997	92.543	149.8021
92.500000	92.473	149.5587
93.800003	92.407	149.3129
95.000000	92.346	149.0819
96.199997	92.287	148.8521
97.500000	92.223	148.6137
98.800003	92.158	148.3928
100.000000	92.099	148.2062
101.500000	92.026	147.9897
103.000000	91.955	147.7792
104.400002	91.890	147.5834
106.000000	91.818	147.3643
107.500000	91.752	147.1606
109.000000	91.688	146.9443
110.599998	91.619	146.6941
112.000000	91.557	146.4675
113.800003	91.471	146.1950
115.000000	91.409	146.0500
117.199997	91.289	145.9096
118.000000	91.247	145.8930
120.599998	91.122	145.8150
122.000000	91.058	145.7024
124.099998	90.964	145.4833
125.000000	90.925	145.3918
126.500000	90.864	145.2622
128.000000	90.808	145.1685
131.500000	90.682	145.0320
132.000000	90.663	145.0129
134.000000	90.582	144.9166
136.000000	90.502	144.7758
138.000000	90.431	144.6090
140.000000	90.368	144.4854
143.000000	90.282	144.4539
145.000000	90.224	144.4098
147.500000	90.138	144.2374
150.000000	90.046	144.0093
152.500000	89.949	143.7702
155.000000	89.846	143.4818
157.500000	89.743	143.1177
160.000000	89.642	142.8289
162.500000	89.553	142.7734
165.000000	89.475	142.8297
167.500000	89.388	142.8659
170.000000	89.292	142.9157
172.500000	89.202	142.9849
175.000000	89.125	143.0134
177.500000	89.057	142.9490
180.000000	88.986	142.8087
182.500000	88.911	142.6733
185.000000	88.832	142.6085
187.500000	88.756	142.6357
190.000000	88.681	142.7128
192.500000	88.602	142.7832
195.000000	88.518	142.8297
197.500000	88.434	142.8705
200.000000	88.352	142.9242
203.000000	88.259	143.0079
206.000000	88.171	143.0976
209.000000	88.081	143.1727
212.000000	87.989	143.2222
214.000000	87.927	143.2436
218.000000	87.814	143.2977
220.000000	87.761	143.3505
224.000000	87.661	143.4973
227.000000	87.587	143.6069
230.000000	87.513	143.7040
233.000000	87.439	143.7936
236.000000	87.364	143.8768
240.000000	87.265	143.9762
243.000000	87.189	144.0500
247.000000	87.084	144.1761
250.000000	87.005	144.3110
254.000000	86.903	144.5534
258.000000	86.814	144.8216
262.000000	86.734	145.0366
265.000000	86.672	145.1576
269.000000	86.585	145.3197
272.000000	86.518	145.4702
276.000000	86.433	145.7046
280.000000	86.354	145.9550
285.000000	86.265	146.2561
290.000000	86.185	146.4831
295.000000	86.100	146.6256
300.000000	86.001	146.7667
304.000000	85.917	146.9116
307.000000	85.855	147.0340
311.000000	85.774	147.2039
315.000000	85.692	147.3808
320.000000	85.589	147.6411
325.000000	85.485	147.9624
330.000000	85.387	148.3126
335.000000	85.294	148.6597
340.000000	85.202	148.9908
345.000000	85.109	149.3191
350.000000	85.013	149.6684
355.000000	84.916	150.0482
360.000000	84.819	150.4649
365.000000	84.723	150.9301
370.000000	84.627	151.4558
375.000000	84.534	152.0557
382.000000	84.419	153.0365
387.000000	84.357	153.8260
395.000000	84.311	155.1286
400.000000	84.318	155.8445
406.000000	84.351	156.4652
412.000000	84.385	156.7861
418.000000	84.398	156.8945
425.000000	84.376	156.9347
431.000000	84.333	156.9950
437.000000	84.280	157.1073
444.000000	84.212	157.3031
450.000000	84.154	157.5007
455.000000	84.106	157.6594
462.000000	84.032	157.8732
468.000000	83.961	158.0929
475.000000	83.875	158.4229
482.000000	83.793	158.8073
487.000000	83.736	159.0977
494.000000	83.655	159.5368
500.000000	83.589	159.9543
508.000000	83.507	160.5325
515.000000	83.440	161.0237
522.000000	83.375	161.5095
530.000000	83.301	162.0886
538.000000	83.233	162.6945
545.000000	83.178	163.2289
552.000000	83.126	163.7647
560.000000	83.070	164.3737
570.000000	83.001	165.1209
580.000000	82.933	165.8713
590.000000	82.865	166.6392
600.000000	82.801	167.4366
608.000000	82.754	168.0850
615.000000	82.715	168.6498
622.000000	82.675	169.2231
630.000000	82.632	169.9079
640.000000	82.587	170.7989
650.000000	82.554	171.7002
660.000000	82.533	172.5862
670.000000	82.522	173.3965
680.000000	82.508	174.1249
690.000000	82.487	174.8306
700.000000	82.461	175.5617
710.000000	82.437	176.3279
720.000000	82.418	177.1098
730.000000	82.402	177.8976
740.000000	82.389	178.6935
750.000000	82.379	179.4983
762.000000	82.373	-179.5268
775.000000	82.372	-178.4642
788.000000	82.378	-177.3994
800.000000	82.391	-176.4039
812.000000	82.416	-175.3987
825.000000	82.460	-174.3581
838.000000	82.511	-173.4308
850.000000	82.554	-172.6502
862.000000	82.591	-171.8845
875.000000	82.630	-171.0393
885.000000	82.663	-170.3776
900.000000	82.717	-169.3888
912.000000	82.764	-168.6023
925.000000	82.822	-167.7592
938.000000	82.887	-166.9451
950.000000	82.950	-166.2320
962.000000	83.015	-165.5504
975.000000	83.086	-164.8339
988.000000	83.157	-164.1334
1000.000000	83.225	-163.4942
1015.000000	83.316	-162.6880
1030.000000	83.419	-161.8931
1044.000000	83.528	-161.2232
1060.000000	83.656	-160.5987
1075.000000	83.769	-160.1189
1090.000000	83.873	-159.6870
1106.000000	83.979	-159.2570
1120.000000	84.067	-158.9015
1138.000000	84.176	-158.4615
1150.000000	84.247	-158.1727
1172.000000	84.376	-157.6414
1180.000000	84.424	-157.4462
1206.000000	84.591	-156.8692
1220.000000	84.682	-156.6483
1241.000000	84.806	-156.4194
1250.000000	84.853	-156.3357
1265.000000	84.926	-156.1929
1280.000000	84.992	-156.0364
1315.000000	85.137	-155.6075
1320.000000	85.157	-155.5430
1340.000000	85.234	-155.2840
1360.000000	85.306	-155.0067
1380.000000	85.374	-154.6791
1400.000000	85.445	-154.2791
1430.000000	85.576	-153.6451
1450.000000	85.671	-153.2956
1475.000000	85.786	-152.9251
1500.000000	85.894	-152.5692
1525.000000	85.997	-152.1866
1550.000000	86.101	-151.7489
1575.000000	86.217	-151.2703
1600.000000	86.349	-150.8434
1625.000000	86.481	-150.5208
1650.000000	86.607	-150.2559
1675.000000	86.727	-149.9974
1700.000000	86.845	-149.7320
1725.000000	86.961	-149.4648
1750.000000	87.074	-149.1756
1775.000000	87.189	-148.8260
1800.000000	87.316	-148.4260
1825.000000	87.459	-148.0522
1850.000000	87.610	-147.7527
1875.000000	87.761	-147.5183
1900.000000	87.911	-147.3167
1925.000000	88.061	-147.1125
1950.000000	88.217	-146.8947
1975.000000	88.386	-146.7029
2000.000000	88.563	-146.5895
2030.000000	88.775	-146.5676
2060.000000	88.984	-146.6356
2090.000000	89.190	-146.7675
2120.000000	89.391	-146.9472
2140.000000	89.523	-147.0736
2180.000000	89.792	-147.3036
2200.000000	89.934	-147.4315
2240.000000	90.231	-147.8073
2270.000000	90.457	-148.2094
2300.000000	90.680	-148.6865
2330.000000	90.907	-149.2140
2360.000000	91.142	-149.8159
2400.000000	91.461	-150.8228
2430.000000	91.697	-151.7525
2470.000000	91.998	-153.2025
2500.000000	92.209	-154.4264
2540.000000	92.471	-156.1808
2580.000000	92.718	-158.0368
2620.000000	92.954	-160.0497
2650.000000	93.119	-161.6894
2690.000000	93.315	-164.0235
2720.000000	93.445	-165.8591
2760.000000	93.599	-168.4380
2800.000000	93.723	-171.2171
2850.000000	93.815	-174.9665
2900.000000	93.813	-178.8834
2950.000000	93.711	177.2998
3000.000000	93.528	173.7828
3040.000000	93.337	171.2271
3070.000000	93.173	169.4791
3110.000000	92.935	167.3917
3150.000000	92.688	165.5562
3200.000000	92.374	163.5221
3250.000000	92.055	161.6990
3300.000000	91.723	160.0753
3350.000000	91.379	158.6948
3400.000000	91.030	157.5547
3450.000000	90.679	156.6273
3500.000000	90.325	155.9341
3550.000000	89.979	155.4723
3600.000000	89.647	155.1769
3650.000000	89.327	154.9866
3700.000000	89.011	154.8973
3750.000000	88.696	154.9491
3820.000000	88.264	155.2768
3870.000000	87.964	155.6971
3950.000000	87.516	156.7014
4000.000000	87.267	157.4595
4060.000000	86.996	158.3950
4120.000000	86.744	159.3344
4180.000000	86.504	160.2968
4250.000000	86.232	161.4780
4310.000000	86.006	162.6028
4370.000000	85.797	163.8411
4440.000000	85.582	165.3415
4500.000000	85.418	166.6171
4550.000000	85.290	167.6695
4620.000000	85.120	169.1374
4680.000000	84.976	170.4344
4750.000000	84.819	172.0478
4820.000000	84.682	173.7400
4870.000000	84.599	174.9592
4940.000000	84.499	176.6544
5000.000000	84.423	178.0878
5080.000000	84.328	-179.9904
5150.000000	84.254	-178.2381
5220.000000	84.198	-176.4213
5300.000000	84.159	-174.3206
5380.000000	84.144	-172.2416
5450.000000	84.144	-170.4468
5520.000000	84.152	-168.6345
5600.000000	84.180	-166.5123
5700.000000	84.251	-163.8307
5800.000000	84.361	-161.2052
5900.000000	84.497	-158.6518
6000.000000	84.661	-156.0902
6080.000000	84.818	-154.0234
6150.000000	84.980	-152.2281
6220.000000	85.161	-150.4711
6300.000000	85.392	-148.5113
6400.000000	85.718	-146.1061
6500.000000	86.095	-143.7598
6600.000000	86.530	-141.5385
6700.000000	87.022	-139.4993
6800.000000	87.575	-137.6573
6900.000000	88.199	-136.0516
7000.000000	88.904	-134.7778
7100.000000	89.690	-133.9466
7200.000000	90.565	-133.6641
7300.000000	91.532	-134.1026
7400.000000	92.579	-135.5533
7500.000000	93.665	-138.3924
7620.000000	94.923	-144.1849
7750.000000	96.050	-153.9666
7880.000000	96.700	-167.1791
8000.000000	96.731	179.1725
8120.000000	96.202	166.4537
8250.000000	95.133	155.6909
8380.000000	93.766	148.5426
8500.000000	92.418	144.6073
8620.000000	91.087	142.6186
8750.000000	89.727	142.1285
8850.000000	88.765	142.6317
9000.000000	87.480	144.3929
9120.000000	86.588	146.3775
9250.000000	85.742	148.9052
9380.000000	85.003	151.7311
9500.000000	84.408	154.5256
9620.000000	83.884	157.4376
9750.000000	83.388	160.7040
9880.000000	82.960	164.0635
10000.000000	82.623	167.2109
10150.000000	82.269	171.1918
10300.000000	81.989	175.2119
10440.000000	81.792	178.9594
10600.000000	81.637	-176.7733
10750.000000	81.560	-172.8002
10900.000000	81.547	-168.8866
11060.000000	81.604	-164.7864
11200.000000	81.715	-161.2857
11380.000000	81.946	-156.9446
11500.000000	82.158	-154.1645
11720.000000	82.676	-149.3953
11800.000000	82.910	-147.7920
12060.000000	83.850	-143.2391
12200.000000	84.479	-141.3553
12410.000000	85.586	-139.6152
12500.000000	86.114	-139.4025
12650.000000	87.042	-139.9894
12800.000000	87.985	-142.0449
13150.000000	89.812	-154.0948
13200.000000	89.985	-156.6578
13400.000000	90.344	-168.3386
13600.000000	90.126	179.3829
13800.000000	89.371	168.8109
14000.000000	88.220	161.3195
14300.000000	86.153	155.9395
14500.000000	84.777	155.3152
14750.000000	83.227	156.6335
15000.000000	81.929	159.3829
15250.000000	80.889	162.9567
15500.000000	80.091	166.9906
15750.000000	79.524	171.2370
16000.000000	79.193	175.4760
16250.000000	79.121	179.4460
16500.000000	79.345	-177.2487
16750.000000	79.890	-175.2742
17000.000000	80.713	-175.7244
17250.000000	81.634	179.9069
17500.000000	82.345	170.3897
17750.000000	82.504	156.2331
18000.000000	81.886	140.6335
18250.000000	80.467	127.8506
18500.000000	78.408	120.3554
18750.000000	75.942	118.1225
19000.000000	73.301	119.9215
19250.000000	70.666	124.5286
19500.000000	68.157	131.1354
19750.000000	65.832	139.3005
20000.000000	63.702	148.7878
