* Measurement data measured by REW V5.20.11
* Source: Mic in at front panel (Pink) (Realtek(R) Audio), MICROPHONE (Master Volume), L, volume: 0.250
* Format: 256k Log Swept Sine, 1 sweep at -12.0 dBFS with no timing reference
* Dated: Sep 15, 2022 4:11:52 PM
* REW Settings:
*  C-weighting compensation: Off
*  Target level: 75.0 dB
* Note: KBEAR Dumpling L
* Measurement: KBEAR Dumpling L
* Smoothing: 1/12 octave
* Frequency Step: 1/48 octave
* Start Frequency: 20.000 Hz
*
* Freq(Hz)	SPL(dB)	Phase(degrees)
20.000000	95.072	-167.3279
20.299999	95.083	-167.7904
20.600000	95.091	-168.2464
20.900000	95.098	-168.6914
21.200001	95.104	-169.1227
21.400000	95.107	-169.4032
21.799999	95.115	-169.9507
22.000000	95.118	-170.2200
22.400000	95.126	-170.7542
22.700001	95.131	-171.1528
23.000000	95.135	-171.5494
23.299999	95.138	-171.9420
23.600000	95.139	-172.3285
24.000000	95.140	-172.8315
24.299999	95.139	-173.1983
24.700001	95.138	-173.6737
25.000000	95.137	-174.0212
25.400000	95.136	-174.4750
25.799999	95.134	-174.9207
26.200001	95.133	-175.3607
26.500000	95.132	-175.6877
26.900000	95.129	-176.1200
27.200001	95.127	-176.4411
27.600000	95.124	-176.8646
28.000000	95.120	-177.2822
28.500000	95.115	-177.7955
29.000000	95.108	-178.2987
29.500000	95.101	-178.7908
30.000000	95.094	-179.2705
30.400000	95.088	-179.6448
30.700001	95.083	-179.9208
31.100000	95.078	179.7158
31.500000	95.072	179.3552
32.000000	95.066	178.9066
32.500000	95.058	178.4611
33.000000	95.049	178.0222
33.500000	95.039	177.5916
34.000000	95.029	177.1676
34.500000	95.017	176.7484
35.000000	95.005	176.3344
35.500000	94.991	175.9286
36.000000	94.977	175.5327
36.500000	94.962	175.1456
37.000000	94.947	174.7654
37.500000	94.931	174.3917
38.200001	94.908	173.8817
38.700001	94.891	173.5271
39.500000	94.865	172.9712
40.000000	94.849	172.6280
40.599998	94.829	172.2207
41.200001	94.808	171.8214
41.799999	94.787	171.4323
42.500000	94.761	170.9909
43.099998	94.740	170.6212
43.700001	94.718	170.2579
44.400002	94.693	169.8409
45.000000	94.671	169.4888
45.500000	94.652	169.1993
46.200001	94.626	168.8010
46.799999	94.603	168.4666
47.500000	94.576	168.0845
48.200001	94.549	167.7117
48.700001	94.530	167.4515
49.400002	94.503	167.0931
50.000000	94.480	166.7880
50.799999	94.449	166.3839
51.500000	94.421	166.0392
52.200001	94.392	165.7074
53.000000	94.360	165.3429
53.799999	94.329	164.9902
54.500000	94.302	164.6870
55.200001	94.277	164.3861
56.000000	94.249	164.0455
57.000000	94.216	163.6213
58.000000	94.184	163.1833
59.000000	94.149	162.7269
60.000000	94.109	162.2748
60.799999	94.075	161.9288
61.500000	94.045	161.6362
62.200001	94.014	161.3497
63.000000	93.979	161.0289
64.000000	93.936	160.6388
65.000000	93.892	160.2602
66.000000	93.848	159.8932
67.000000	93.805	159.5384
68.000000	93.762	159.1938
69.000000	93.720	158.8558
70.000000	93.678	158.5244
71.000000	93.636	158.2031
72.000000	93.595	157.8930
73.000000	93.554	157.5886
74.000000	93.514	157.2861
75.000000	93.474	156.9863
76.199997	93.426	156.6299
77.500000	93.375	156.2430
78.800003	93.325	155.8499
80.000000	93.282	155.4756
81.199997	93.239	155.0786
82.500000	93.190	154.6224
83.800003	93.134	154.1687
85.000000	93.076	153.7793
86.199997	93.015	153.4286
87.500000	92.948	153.0912
88.500000	92.897	152.8570
90.000000	92.822	152.5322
91.199997	92.764	152.2851
92.500000	92.703	152.0246
93.800003	92.644	151.7664
95.000000	92.589	151.5287
96.199997	92.535	151.2917
97.500000	92.477	151.0356
98.800003	92.418	150.7854
100.000000	92.364	150.5689
101.500000	92.299	150.3227
103.000000	92.237	150.0932
104.400002	92.181	149.8810
106.000000	92.120	149.6291
107.500000	92.063	149.3856
109.000000	92.007	149.1391
110.599998	91.945	148.8658
112.000000	91.888	148.6108
113.800003	91.807	148.2601
115.000000	91.750	148.0208
117.199997	91.640	147.6160
118.000000	91.601	147.4948
120.599998	91.478	147.2663
122.000000	91.421	147.2333
124.099998	91.345	147.1835
125.000000	91.313	147.1393
126.500000	91.260	147.0278
128.000000	91.205	146.8746
131.500000	91.076	146.4248
132.000000	91.058	146.3579
134.000000	90.981	146.1064
136.000000	90.900	145.9003
138.000000	90.817	145.7485
140.000000	90.737	145.6378
143.000000	90.625	145.5135
145.000000	90.554	145.4359
147.500000	90.458	145.3336
150.000000	90.359	145.2210
152.500000	90.269	145.1697
155.000000	90.191	145.3593
157.500000	90.122	145.8285
160.000000	90.067	146.2518
162.500000	90.027	146.1642
165.000000	89.987	145.6317
167.500000	89.947	145.1118
170.000000	89.894	144.8446
172.500000	89.815	144.7960
175.000000	89.719	144.7507
177.500000	89.616	144.5714
180.000000	89.522	144.2996
182.500000	89.439	144.0176
185.000000	89.361	143.7905
187.500000	89.284	143.6519
190.000000	89.208	143.5858
192.500000	89.131	143.5432
195.000000	89.054	143.4955
197.500000	88.977	143.4474
200.000000	88.901	143.4142
203.000000	88.813	143.4030
206.000000	88.730	143.4093
209.000000	88.655	143.4120
212.000000	88.584	143.4006
214.000000	88.534	143.3806
218.000000	88.421	143.3481
220.000000	88.358	143.3658
224.000000	88.240	143.4461
227.000000	88.160	143.5009
230.000000	88.084	143.5461
233.000000	88.010	143.5876
236.000000	87.938	143.6236
240.000000	87.841	143.6614
243.000000	87.765	143.6848
247.000000	87.660	143.7375
250.000000	87.580	143.8148
254.000000	87.478	143.9782
258.000000	87.389	144.1725
262.000000	87.310	144.3161
265.000000	87.249	144.3848
269.000000	87.162	144.4786
272.000000	87.097	144.5745
276.000000	87.012	144.7351
280.000000	86.933	144.9192
285.000000	86.845	145.1456
290.000000	86.765	145.2980
295.000000	86.680	145.3584
300.000000	86.583	145.4128
304.000000	86.500	145.4928
307.000000	86.439	145.5710
311.000000	86.360	145.6857
315.000000	86.281	145.8047
320.000000	86.181	145.9799
325.000000	86.081	146.2125
330.000000	85.984	146.4796
335.000000	85.895	146.7411
340.000000	85.809	146.9832
345.000000	85.722	147.2161
350.000000	85.635	147.4553
355.000000	85.549	147.7064
360.000000	85.464	147.9674
365.000000	85.380	148.2357
370.000000	85.298	148.5118
375.000000	85.216	148.7960
382.000000	85.105	149.2058
387.000000	85.026	149.5066
395.000000	84.902	150.0082
400.000000	84.826	150.3359
406.000000	84.735	150.7372
412.000000	84.643	151.1473
418.000000	84.549	151.5883
425.000000	84.440	152.1760
431.000000	84.357	152.7480
437.000000	84.287	153.3704
444.000000	84.220	154.1353
450.000000	84.177	154.7734
455.000000	84.152	155.2385
462.000000	84.127	155.7530
468.000000	84.106	156.1022
475.000000	84.080	156.4334
482.000000	84.047	156.6919
487.000000	84.015	156.8510
494.000000	83.956	157.0875
500.000000	83.897	157.3331
508.000000	83.819	157.7061
515.000000	83.750	158.0528
522.000000	83.678	158.4268
530.000000	83.594	158.9044
538.000000	83.515	159.4164
545.000000	83.451	159.8736
552.000000	83.391	160.3423
560.000000	83.327	160.8850
570.000000	83.247	161.5623
580.000000	83.168	162.2551
590.000000	83.089	162.9736
600.000000	83.014	163.7266
608.000000	82.959	164.3419
615.000000	82.913	164.8798
622.000000	82.866	165.4271
630.000000	82.814	166.0837
640.000000	82.759	166.9423
650.000000	82.715	167.8123
660.000000	82.685	168.6667
670.000000	82.664	169.4470
680.000000	82.640	170.1475
690.000000	82.609	170.8278
700.000000	82.574	171.5342
710.000000	82.541	172.2767
720.000000	82.512	173.0366
730.000000	82.486	173.8029
740.000000	82.463	174.5776
750.000000	82.442	175.3634
762.000000	82.423	176.3220
775.000000	82.411	177.3748
788.000000	82.406	178.4345
800.000000	82.409	179.4271
812.000000	82.424	-179.5701
825.000000	82.457	-178.5360
838.000000	82.497	-177.6199
850.000000	82.530	-176.8507
862.000000	82.556	-176.0957
875.000000	82.583	-175.2604
885.000000	82.606	-174.6029
900.000000	82.645	-173.6092
912.000000	82.682	-172.8098
925.000000	82.730	-171.9480
938.000000	82.785	-171.1138
950.000000	82.840	-170.3830
962.000000	82.897	-169.6850
975.000000	82.960	-168.9513
988.000000	83.025	-168.2336
1000.000000	83.086	-167.5788
1015.000000	83.168	-166.7553
1030.000000	83.262	-165.9465
1044.000000	83.363	-165.2653
1060.000000	83.483	-164.6280
1075.000000	83.588	-164.1363
1090.000000	83.685	-163.6929
1106.000000	83.783	-163.2518
1120.000000	83.864	-162.8873
1138.000000	83.965	-162.4363
1150.000000	84.030	-162.1406
1172.000000	84.148	-161.5970
1180.000000	84.192	-161.3977
1206.000000	84.346	-160.8120
1220.000000	84.431	-160.5883
1241.000000	84.545	-160.3549
1250.000000	84.587	-160.2687
1265.000000	84.652	-160.1210
1280.000000	84.711	-159.9590
1315.000000	84.836	-159.5194
1320.000000	84.853	-159.4534
1340.000000	84.919	-159.1859
1360.000000	84.978	-158.8951
1380.000000	85.033	-158.5483
1400.000000	85.091	-158.1231
1430.000000	85.201	-157.4399
1450.000000	85.283	-157.0505
1475.000000	85.383	-156.6257
1500.000000	85.475	-156.2100
1525.000000	85.564	-155.7617
1550.000000	85.654	-155.2542
1575.000000	85.757	-154.7034
1600.000000	85.876	-154.2025
1625.000000	85.997	-153.8029
1650.000000	86.111	-153.4558
1675.000000	86.220	-153.1090
1700.000000	86.329	-152.7490
1725.000000	86.438	-152.3857
1750.000000	86.547	-152.0072
1775.000000	86.659	-151.5844
1800.000000	86.783	-151.1337
1825.000000	86.922	-150.7285
1850.000000	87.064	-150.4059
1875.000000	87.205	-150.1433
1900.000000	87.342	-149.9002
1925.000000	87.478	-149.6407
1950.000000	87.622	-149.3569
1975.000000	87.777	-149.0920
2000.000000	87.942	-148.9008
2030.000000	88.140	-148.7806
2060.000000	88.336	-148.7443
2090.000000	88.528	-148.7665
2120.000000	88.715	-148.8329
2140.000000	88.838	-148.8826
2180.000000	89.088	-148.9562
2200.000000	89.221	-149.0032
2240.000000	89.497	-149.2070
2270.000000	89.705	-149.4666
2300.000000	89.912	-149.7855
2330.000000	90.121	-150.1366
2360.000000	90.340	-150.5439
2400.000000	90.640	-151.2670
2430.000000	90.863	-151.9700
2470.000000	91.149	-153.1013
2500.000000	91.350	-154.0723
2540.000000	91.598	-155.4668
2580.000000	91.831	-156.9278
2620.000000	92.055	-158.4955
2650.000000	92.212	-159.7565
2690.000000	92.402	-161.5081
2720.000000	92.535	-162.8379
2760.000000	92.707	-164.6444
2800.000000	92.877	-166.5560
2850.000000	93.078	-169.1785
2900.000000	93.250	-172.1150
2950.000000	93.373	-175.3271
3000.000000	93.439	-178.7615
3040.000000	93.443	178.3605
3070.000000	93.411	176.1713
3110.000000	93.324	173.2869
3150.000000	93.191	170.4927
3200.000000	92.965	167.1619
3250.000000	92.672	164.0758
3300.000000	92.316	161.3500
3350.000000	91.910	159.1114
3400.000000	91.481	157.3799
3450.000000	91.046	156.0951
3500.000000	90.618	155.2124
3550.000000	90.208	154.6619
3600.000000	89.825	154.3304
3650.000000	89.462	154.1306
3700.000000	89.108	154.0515
3750.000000	88.760	154.1340
3820.000000	88.290	154.5370
3870.000000	87.968	155.0261
3950.000000	87.492	156.1439
4000.000000	87.230	156.9680
4060.000000	86.945	157.9794
4120.000000	86.680	158.9986
4180.000000	86.430	160.0477
4250.000000	86.151	161.3276
4310.000000	85.922	162.5200
4370.000000	85.712	163.8027
4440.000000	85.496	165.3286
4500.000000	85.328	166.6120
4550.000000	85.194	167.6669
4620.000000	85.011	169.1451
4680.000000	84.853	170.4709
4750.000000	84.677	172.1541
4820.000000	84.523	173.9597
4870.000000	84.429	175.2828
4940.000000	84.317	177.1443
5000.000000	84.236	178.7290
5080.000000	84.141	-179.1501
5150.000000	84.071	-177.2364
5220.000000	84.023	-175.2779
5300.000000	83.995	-173.0436
5380.000000	83.990	-170.8596
5450.000000	83.998	-168.9922
5520.000000	84.014	-167.1204
5600.000000	84.047	-164.9390
5700.000000	84.122	-162.1856
5800.000000	84.234	-159.4798
5900.000000	84.370	-156.8332
6000.000000	84.532	-154.1698
6080.000000	84.688	-152.0194
6150.000000	84.848	-150.1523
6220.000000	85.027	-148.3261
6300.000000	85.254	-146.2928
6400.000000	85.569	-143.8056
6500.000000	85.927	-141.3821
6600.000000	86.330	-139.0676
6700.000000	86.774	-136.8740
6800.000000	87.265	-134.7377
6900.000000	87.829	-132.5938
7000.000000	88.505	-130.4739
7100.000000	89.326	-128.6126
7200.000000	90.277	-127.4412
7300.000000	91.311	-127.2562
7400.000000	92.412	-128.0829
7500.000000	93.581	-130.0493
7620.000000	95.018	-134.5031
7750.000000	96.439	-142.9468
7880.000000	97.441	-155.7147
8000.000000	97.776	-170.2318
8120.000000	97.472	175.1597
8250.000000	96.514	162.0538
8380.000000	95.117	153.1436
8500.000000	93.652	148.4409
8620.000000	92.187	146.3005
8750.000000	90.720	145.9244
8850.000000	89.709	146.5613
9000.000000	88.389	148.5256
9120.000000	87.493	150.6656
9250.000000	86.657	153.3527
9380.000000	85.941	156.3282
9500.000000	85.374	159.2512
9620.000000	84.886	162.2812
9750.000000	84.434	165.6624
9880.000000	84.056	169.1225
10000.000000	83.769	172.3504
10150.000000	83.485	176.4183
10300.000000	83.282	-179.4834
10440.000000	83.162	-175.6651
10600.000000	83.107	-171.3151
10750.000000	83.136	-167.2603
10900.000000	83.248	-163.2634
11060.000000	83.461	-159.0792
11200.000000	83.739	-155.5178
11380.000000	84.235	-151.1412
11500.000000	84.668	-148.3889
11720.000000	85.727	-143.8874
11800.000000	86.212	-142.5023
12060.000000	88.209	-139.6178
12200.000000	89.523	-139.7635
12410.000000	91.604	-143.9564
12500.000000	92.438	-147.7965
12650.000000	93.592	-157.4944
12800.000000	94.287	-171.0457
13150.000000	93.570	153.7422
13200.000000	93.213	149.7065
13400.000000	91.346	138.0027
13600.000000	89.076	132.7411
13800.000000	86.759	131.8948
14000.000000	84.638	133.6272
14300.000000	82.030	138.6953
14500.000000	80.658	142.9186
14750.000000	79.275	148.6731
15000.000000	78.185	154.7161
15250.000000	77.332	160.8926
15500.000000	76.690	167.0945
15750.000000	76.248	173.2296
16000.000000	76.012	179.1948
16250.000000	76.007	-175.1612
16500.000000	76.275	-170.1012
16750.000000	76.862	-166.1044
17000.000000	77.775	-164.0389
17250.000000	78.901	-165.3073
17500.000000	79.971	-171.6026
17750.000000	80.615	176.2983
18000.000000	80.513	160.3375
18250.000000	79.526	145.0916
18500.000000	77.744	134.6685
18750.000000	75.399	130.2905
19000.000000	72.746	130.9859
19250.000000	70.007	135.2820
19500.000000	67.345	142.0583
19750.000000	64.857	150.6425
20000.000000	62.584	160.6703
