* Measurement data measured by REW V5.20.11
* Source: Mic in at front panel (Pink) (Realtek(R) Audio), MICROPHONE (Master Volume), L, volume: 0.250
* Format: 256k Log Swept Sine, 1 sweep at -12.0 dBFS with no timing reference
* Dated: Aug 31, 2022 9:06:50 PM
* REW Settings:
*  C-weighting compensation: Off
*  Target level: 75.0 dB
* Note: KZ AST 25ohm
* Measurement: AST  25ohm
* Smoothing: 1/12 octave
* Frequency Step: 1/48 octave
* Start Frequency: 20.000 Hz
*
* Freq(Hz)	SPL(dB)	Phase(degrees)
20.000000	104.145	-162.1775
20.299999	104.164	-162.6620
20.600000	104.182	-163.1442
20.900000	104.199	-163.6207
21.200001	104.215	-164.0849
21.400000	104.226	-164.3839
21.799999	104.250	-164.9559
22.000000	104.263	-165.2318
22.400000	104.296	-165.7778
22.700001	104.325	-166.2009
23.000000	104.356	-166.6526
23.299999	104.386	-167.1383
23.600000	104.412	-167.6509
24.000000	104.436	-168.3493
24.299999	104.446	-168.8539
24.700001	104.451	-169.4673
25.000000	104.454	-169.8723
25.400000	104.460	-170.3482
25.799999	104.472	-170.7836
26.200001	104.491	-171.2155
26.500000	104.507	-171.5518
26.900000	104.529	-172.0215
27.200001	104.544	-172.3873
27.600000	104.561	-172.8862
28.000000	104.572	-173.3888
28.500000	104.581	-174.0071
29.000000	104.582	-174.5942
29.500000	104.580	-175.1368
30.000000	104.580	-175.6415
30.400000	104.582	-176.0343
30.700001	104.585	-176.3310
31.100000	104.588	-176.7342
31.500000	104.591	-177.1439
32.000000	104.592	-177.6533
32.500000	104.592	-178.1492
33.000000	104.593	-178.6333
33.500000	104.595	-179.1150
34.000000	104.597	-179.5987
34.500000	104.599	179.9205
35.000000	104.600	179.4477
35.500000	104.602	178.9799
36.000000	104.603	178.5094
36.500000	104.602	178.0372
37.000000	104.597	177.5784
37.500000	104.589	177.1512
38.200001	104.578	176.6168
38.700001	104.574	176.2669
39.500000	104.574	175.7176
40.000000	104.578	175.3621
40.599998	104.582	174.9116
41.200001	104.585	174.4348
41.799999	104.584	173.9441
42.500000	104.577	173.3743
43.099998	104.568	172.8976
43.700001	104.557	172.4361
44.400002	104.543	171.9241
45.000000	104.533	171.5076
45.500000	104.527	171.1664
46.200001	104.521	170.6804
46.799999	104.518	170.2468
47.500000	104.513	169.7190
48.200001	104.504	169.1722
48.700001	104.493	168.7828
49.400002	104.472	168.2726
50.000000	104.453	167.8902
50.799999	104.433	167.4490
51.500000	104.424	167.0866
52.200001	104.421	166.7175
53.000000	104.422	166.2794
53.799999	104.423	165.8274
54.500000	104.425	165.4243
55.200001	104.425	165.0134
56.000000	104.423	164.5311
57.000000	104.416	163.9158
58.000000	104.402	163.2882
59.000000	104.381	162.6379
60.000000	104.349	162.0041
60.799999	104.319	161.5407
61.500000	104.295	161.1660
62.200001	104.273	160.8121
63.000000	104.252	160.4244
64.000000	104.230	159.9531
65.000000	104.214	159.4863
66.000000	104.203	159.0133
67.000000	104.195	158.5162
68.000000	104.187	157.9833
69.000000	104.178	157.4166
70.000000	104.167	156.8211
71.000000	104.152	156.2099
72.000000	104.131	155.6097
73.000000	104.108	155.0388
74.000000	104.084	154.4932
75.000000	104.059	153.9639
76.199997	104.026	153.3414
77.500000	103.987	152.6638
78.800003	103.944	151.9798
80.000000	103.904	151.3512
81.199997	103.867	150.7234
82.500000	103.829	150.0374
83.800003	103.788	149.3483
85.000000	103.743	148.7246
86.199997	103.691	148.1276
87.500000	103.630	147.5151
88.500000	103.584	147.0650
90.000000	103.519	146.4158
91.199997	103.472	145.9180
92.500000	103.420	145.4183
93.800003	103.364	144.9879
95.000000	103.307	144.6515
96.199997	103.248	144.3480
97.500000	103.183	144.0384
98.800003	103.126	143.7435
100.000000	103.086	143.4780
101.500000	103.057	143.1387
103.000000	103.044	142.7716
104.400002	103.037	142.3743
106.000000	103.024	141.8119
107.500000	103.003	141.1824
109.000000	102.979	140.5108
110.599998	102.953	139.8076
112.000000	102.925	139.2059
113.800003	102.858	138.3873
115.000000	102.787	137.7645
117.199997	102.606	136.4544
118.000000	102.533	135.9918
120.599998	102.366	135.0019
122.000000	102.358	134.7138
124.099998	102.384	134.2839
125.000000	102.384	134.0970
126.500000	102.360	133.7878
128.000000	102.314	133.4449
131.500000	102.190	132.3953
132.000000	102.173	132.2357
134.000000	102.108	131.6266
136.000000	102.040	131.0542
138.000000	101.967	130.4824
140.000000	101.893	129.8975
143.000000	101.782	129.0383
145.000000	101.702	128.5009
147.500000	101.597	127.8652
150.000000	101.502	127.2576
152.500000	101.417	126.6772
155.000000	101.329	126.1653
157.500000	101.242	125.6930
160.000000	101.161	125.1922
162.500000	101.084	124.6562
165.000000	101.009	124.1116
167.500000	100.930	123.5665
170.000000	100.847	123.0102
172.500000	100.758	122.4650
175.000000	100.673	121.9610
177.500000	100.599	121.4755
180.000000	100.531	120.9809
182.500000	100.462	120.4852
185.000000	100.390	119.9907
187.500000	100.316	119.4963
190.000000	100.240	119.0039
192.500000	100.166	118.5048
195.000000	100.097	117.9857
197.500000	100.030	117.4597
200.000000	99.957	116.9828
203.000000	99.859	116.5388
206.000000	99.760	116.1595
209.000000	99.667	115.7318
212.000000	99.577	115.2527
214.000000	99.515	114.9301
218.000000	99.390	114.3284
220.000000	99.329	114.0519
224.000000	99.216	113.5176
227.000000	99.137	113.1177
230.000000	99.060	112.7139
233.000000	98.983	112.3029
236.000000	98.907	111.8843
240.000000	98.803	111.3187
243.000000	98.722	110.8978
247.000000	98.611	110.3658
250.000000	98.526	110.0075
254.000000	98.417	109.5936
258.000000	98.320	109.2100
262.000000	98.233	108.7844
265.000000	98.167	108.4321
269.000000	98.074	107.9613
272.000000	98.002	107.6320
276.000000	97.909	107.2296
280.000000	97.822	106.8536
285.000000	97.724	106.3811
290.000000	97.635	105.8387
295.000000	97.540	105.2148
300.000000	97.432	104.5970
304.000000	97.341	104.1442
307.000000	97.273	103.8251
311.000000	97.185	103.4142
315.000000	97.097	103.0140
320.000000	96.985	102.5431
325.000000	96.874	102.1211
330.000000	96.770	101.7299
335.000000	96.671	101.3405
340.000000	96.574	100.9400
345.000000	96.478	100.5374
350.000000	96.382	100.1496
355.000000	96.286	99.7815
360.000000	96.193	99.4292
365.000000	96.101	99.0901
370.000000	96.010	98.7636
375.000000	95.921	98.4492
382.000000	95.800	98.0264
387.000000	95.715	97.7362
395.000000	95.584	97.2942
400.000000	95.505	97.0303
406.000000	95.413	96.7179
412.000000	95.322	96.4063
418.000000	95.232	96.1104
425.000000	95.129	95.8068
431.000000	95.047	95.5726
437.000000	94.973	95.3356
444.000000	94.894	95.0395
450.000000	94.830	94.7548
455.000000	94.779	94.4794
462.000000	94.699	94.0491
468.000000	94.623	93.6924
475.000000	94.529	93.3306
482.000000	94.437	93.0080
487.000000	94.372	92.7882
494.000000	94.277	92.5154
500.000000	94.198	92.3307
508.000000	94.100	92.1223
515.000000	94.019	91.9388
522.000000	93.940	91.7561
530.000000	93.851	91.5733
538.000000	93.766	91.4211
545.000000	93.695	91.3017
552.000000	93.628	91.1941
560.000000	93.555	91.0759
570.000000	93.467	90.9240
580.000000	93.380	90.7894
590.000000	93.295	90.6895
600.000000	93.215	90.6353
608.000000	93.156	90.6118
615.000000	93.107	90.5954
622.000000	93.058	90.5927
630.000000	93.005	90.6258
640.000000	92.947	90.7137
650.000000	92.901	90.8238
660.000000	92.868	90.9276
670.000000	92.846	90.9655
680.000000	92.822	90.9332
690.000000	92.792	90.8914
700.000000	92.758	90.8874
710.000000	92.726	90.9298
720.000000	92.700	90.9974
730.000000	92.677	91.0784
740.000000	92.658	91.1756
750.000000	92.643	91.2928
762.000000	92.630	91.4606
775.000000	92.625	91.6678
788.000000	92.629	91.8910
800.000000	92.641	92.1188
812.000000	92.665	92.3640
825.000000	92.709	92.5898
838.000000	92.760	92.7156
850.000000	92.804	92.7712
862.000000	92.844	92.8253
875.000000	92.886	92.9135
885.000000	92.921	93.0018
900.000000	92.981	93.1447
912.000000	93.033	93.2671
925.000000	93.098	93.4037
938.000000	93.170	93.5237
950.000000	93.241	93.6071
962.000000	93.314	93.6703
975.000000	93.395	93.7296
988.000000	93.478	93.7858
1000.000000	93.559	93.8403
1015.000000	93.666	93.9255
1030.000000	93.787	94.0078
1044.000000	93.913	94.0205
1060.000000	94.063	93.9049
1075.000000	94.198	93.7059
1090.000000	94.326	93.4772
1106.000000	94.459	93.2229
1120.000000	94.574	92.9948
1138.000000	94.721	92.6998
1150.000000	94.820	92.5053
1172.000000	95.004	92.1577
1180.000000	95.073	92.0334
1206.000000	95.314	91.5691
1220.000000	95.448	91.2314
1241.000000	95.639	90.6291
1250.000000	95.717	90.3575
1265.000000	95.845	89.9054
1280.000000	95.970	89.4584
1315.000000	96.261	88.4120
1320.000000	96.302	88.2559
1340.000000	96.466	87.6078
1360.000000	96.623	86.9486
1380.000000	96.775	86.3293
1400.000000	96.931	85.7833
1430.000000	97.197	84.9737
1450.000000	97.387	84.3134
1475.000000	97.620	83.3573
1500.000000	97.845	82.3285
1525.000000	98.063	81.2786
1550.000000	98.283	80.2305
1575.000000	98.513	79.1570
1600.000000	98.755	77.9538
1625.000000	98.994	76.5665
1650.000000	99.218	75.0447
1675.000000	99.429	73.4410
1700.000000	99.627	71.7659
1725.000000	99.811	70.0117
1750.000000	99.978	68.2014
1775.000000	100.130	66.3783
1800.000000	100.277	64.5380
1825.000000	100.418	62.6132
1850.000000	100.544	60.5713
1875.000000	100.648	58.4404
1900.000000	100.724	56.2700
1925.000000	100.776	54.1089
1950.000000	100.808	51.9823
1975.000000	100.825	49.8683
2000.000000	100.823	47.7362
2030.000000	100.788	45.1788
2060.000000	100.712	42.7013
2090.000000	100.601	40.3721
2120.000000	100.458	38.2387
2140.000000	100.347	36.9554
2180.000000	100.107	34.7878
2200.000000	99.986	33.8947
2240.000000	99.759	32.4296
2270.000000	99.609	31.5832
2300.000000	99.490	30.9021
2330.000000	99.412	30.2793
2360.000000	99.375	29.5537
2400.000000	99.355	28.2224
2430.000000	99.331	26.9653
2470.000000	99.265	25.1201
2500.000000	99.189	23.7137
2540.000000	99.061	21.8970
2580.000000	98.915	20.1582
2620.000000	98.754	18.4402
2650.000000	98.615	17.1724
2690.000000	98.401	15.5989
2720.000000	98.224	14.5648
2760.000000	97.979	13.3827
2800.000000	97.732	12.3711
2850.000000	97.414	11.3098
2900.000000	97.080	10.5096
2950.000000	96.732	10.0735
3000.000000	96.391	10.0209
3040.000000	96.130	10.2076
3070.000000	95.940	10.4803
3110.000000	95.700	11.0378
3150.000000	95.483	11.7951
3200.000000	95.256	12.9235
3250.000000	95.072	14.1475
3300.000000	94.917	15.4269
3350.000000	94.783	16.8114
3400.000000	94.671	18.3533
3450.000000	94.584	20.1167
3500.000000	94.542	22.2023
3550.000000	94.587	24.5988
3600.000000	94.760	27.0760
3650.000000	95.067	29.2486
3700.000000	95.472	30.7327
3750.000000	95.915	31.3026
3820.000000	96.475	30.5814
3870.000000	96.777	29.3109
3950.000000	97.079	26.8872
4000.000000	97.184	25.4532
4060.000000	97.254	23.9456
4120.000000	97.283	22.7208
4180.000000	97.291	21.7910
4250.000000	97.289	21.0510
4310.000000	97.294	20.7202
4370.000000	97.322	20.6346
4440.000000	97.403	20.7062
4500.000000	97.512	20.8121
4550.000000	97.631	20.8939
4620.000000	97.839	20.9410
4680.000000	98.054	20.8812
4750.000000	98.352	20.6322
4820.000000	98.699	20.0536
4870.000000	98.968	19.3584
4940.000000	99.356	17.9250
5000.000000	99.682	16.2368
5080.000000	100.078	13.3589
5150.000000	100.375	10.3611
5220.000000	100.620	7.0059
5300.000000	100.834	2.8115
5380.000000	100.974	-1.6966
5450.000000	101.031	-5.8486
5520.000000	101.025	-10.1291
5600.000000	100.942	-15.1218
5700.000000	100.720	-21.4726
5800.000000	100.351	-27.8225
5900.000000	99.814	-33.8707
6000.000000	99.115	-39.2067
6080.000000	98.461	-42.7729
6150.000000	97.840	-45.3325
6220.000000	97.187	-47.3649
6300.000000	96.414	-49.0394
6400.000000	95.432	-50.1684
6500.000000	94.468	-50.3149
6600.000000	93.552	-49.6457
6700.000000	92.698	-48.3126
6800.000000	91.915	-46.4053
6900.000000	91.214	-44.0139
7000.000000	90.605	-41.2617
7100.000000	90.091	-38.2532
7200.000000	89.677	-35.0476
7300.000000	89.378	-31.7358
7400.000000	89.209	-28.5106
7500.000000	89.172	-25.6528
7620.000000	89.267	-23.1476
7750.000000	89.430	-21.9950
7880.000000	89.509	-22.3613
8000.000000	89.425	-23.3997
8120.000000	89.185	-24.3668
8250.000000	88.807	-24.7291
8380.000000	88.409	-24.1434
8500.000000	88.138	-23.0629
8620.000000	88.026	-22.3175
8750.000000	88.002	-23.0598
8850.000000	87.899	-24.9608
9000.000000	87.339	-28.3654
9120.000000	86.503	-29.3113
9250.000000	85.402	-27.2401
9380.000000	84.408	-22.5999
9500.000000	83.782	-17.3499
9620.000000	83.466	-12.1959
9750.000000	83.386	-7.3279
9880.000000	83.469	-3.4521
10000.000000	83.612	-0.7954
10150.000000	83.804	1.3962
10300.000000	83.956	2.5303
10440.000000	84.025	2.8203
10600.000000	83.979	2.5952
10750.000000	83.802	2.2722
10900.000000	83.508	2.2302
11060.000000	83.094	2.8409
11200.000000	82.686	4.0914
11380.000000	82.156	6.7562
11500.000000	81.837	9.1723
11720.000000	81.416	14.6836
11800.000000	81.338	16.9459
12060.000000	81.469	24.6426
12200.000000	81.823	28.5356
12410.000000	82.725	33.0068
12500.000000	83.214	34.0618
12650.000000	84.077	34.1537
12800.000000	84.870	31.7494
13150.000000	85.677	17.8119
13200.000000	85.631	15.4656
13400.000000	85.063	7.3412
13600.000000	84.074	2.6915
13800.000000	82.994	1.5975
14000.000000	82.143	2.7382
14300.000000	81.698	4.8784
14500.000000	81.934	4.1884
14750.000000	82.502	-1.6333
15000.000000	82.915	-14.9255
15250.000000	82.761	-36.5005
15500.000000	81.836	-66.3174
15750.000000	80.179	-104.6473
16000.000000	78.129	-150.2781
16250.000000	76.539	162.7198
16500.000000	76.295	122.2109
16750.000000	77.053	91.0798
17000.000000	77.922	66.5245
17250.000000	78.367	44.9258
17500.000000	78.158	25.2777
17750.000000	77.277	8.7097
18000.000000	75.864	-3.8745
18250.000000	74.108	-12.7635
18500.000000	72.134	-18.4019
18750.000000	69.972	-20.3873
19000.000000	67.667	-18.3978
19250.000000	65.392	-13.6184
19500.000000	63.283	-7.0403
19750.000000	61.380	1.6000
20000.000000	59.859	11.4069
