* Measurement data measured by REW V5.20.4
* Source: Mic in at front panel (Pink) (Realtek(R) Audio), MICROPHONE (Master Volume), L, volume: 0.250
* Format: 256k Log Swept Sine, 1 sweep at -12.0 dBFS with no timing reference
* Dated: Apr 18, 2022 8:50:40 PM
* REW Settings:
*  C-weighting compensation: Off
*  Target level: 75.0 dB
* Note: KZ EDA Balanced L
* Measurement: EDA Balanced L
* Smoothing: 1/12 octave
* Frequency Step: 1/48 octave
* Start Frequency: 20.000 Hz
*
* Freq(Hz)	SPL(dB)	Phase(degrees)
20.000000	102.773	23.3484
20.299999	102.773	22.6902
20.600000	102.767	22.0463
20.900000	102.759	21.4164
21.200001	102.749	20.8003
21.400000	102.744	20.3968
21.799999	102.736	19.6064
22.000000	102.735	19.2191
22.400000	102.734	18.4597
22.700001	102.734	17.9028
23.000000	102.736	17.3564
23.299999	102.737	16.8208
23.600000	102.738	16.2961
24.000000	102.739	15.6143
24.299999	102.738	15.1165
24.700001	102.734	14.4701
25.000000	102.728	13.9968
25.400000	102.719	13.3790
25.799999	102.709	12.7734
26.200001	102.698	12.1790
26.500000	102.689	11.7408
26.900000	102.674	11.1681
27.200001	102.661	10.7481
27.600000	102.642	10.2015
28.000000	102.622	9.6692
28.500000	102.600	9.0187
29.000000	102.582	8.3770
29.500000	102.565	7.7393
30.000000	102.547	7.1083
30.400000	102.532	6.6138
30.700001	102.522	6.2520
31.100000	102.508	5.7835
31.500000	102.494	5.3301
32.000000	102.475	4.7791
32.500000	102.454	4.2364
33.000000	102.433	3.6965
33.500000	102.412	3.1604
34.000000	102.391	2.6332
34.500000	102.371	2.1193
35.000000	102.353	1.6189
35.500000	102.336	1.1296
36.000000	102.321	0.6494
36.500000	102.307	0.1785
37.000000	102.291	-0.2817
37.500000	102.270	-0.7311
38.200001	102.233	-1.3453
38.700001	102.201	-1.7762
39.500000	102.143	-2.4540
40.000000	102.108	-2.8688
40.599998	102.070	-3.3553
41.200001	102.035	-3.8279
41.799999	102.004	-4.2867
42.500000	101.971	-4.8074
43.099998	101.945	-5.2427
43.700001	101.920	-5.6672
44.400002	101.888	-6.1475
45.000000	101.858	-6.5470
45.500000	101.831	-6.8726
46.200001	101.793	-7.3189
46.799999	101.758	-7.6925
47.500000	101.714	-8.1155
48.200001	101.667	-8.5244
48.700001	101.631	-8.8104
49.400002	101.582	-9.2069
50.000000	101.541	-9.5414
50.799999	101.493	-9.9681
51.500000	101.457	-10.3161
52.200001	101.423	-10.6465
53.000000	101.384	-11.0181
53.799999	101.345	-11.3910
54.500000	101.312	-11.7175
55.200001	101.281	-12.0421
56.000000	101.245	-12.4098
57.000000	101.199	-12.8669
58.000000	101.150	-13.3315
59.000000	101.097	-13.7985
60.000000	101.042	-14.2485
60.799999	100.997	-14.5909
61.500000	100.957	-14.8768
62.200001	100.918	-15.1507
63.000000	100.875	-15.4527
64.000000	100.822	-15.8179
65.000000	100.768	-16.1749
66.000000	100.714	-16.5404
67.000000	100.661	-16.9362
68.000000	100.604	-17.3468
69.000000	100.543	-17.7180
70.000000	100.483	-18.0350
71.000000	100.426	-18.3120
72.000000	100.374	-18.5478
73.000000	100.329	-18.7552
74.000000	100.290	-18.9531
75.000000	100.252	-19.1523
76.199997	100.204	-19.4090
77.500000	100.145	-19.7146
78.800003	100.083	-20.0422
80.000000	100.027	-20.3617
81.199997	99.972	-20.6929
82.500000	99.913	-21.0500
83.800003	99.851	-21.3854
85.000000	99.790	-21.6588
86.199997	99.723	-21.8900
87.500000	99.644	-22.0988
88.500000	99.583	-22.2423
90.000000	99.495	-22.4647
91.199997	99.428	-22.6644
92.500000	99.360	-22.8916
93.800003	99.295	-23.1027
95.000000	99.240	-23.2736
96.199997	99.187	-23.4260
97.500000	99.128	-23.5707
98.800003	99.066	-23.6938
100.000000	99.007	-23.7964
101.500000	98.935	-23.9218
103.000000	98.869	-24.0472
104.400002	98.814	-24.1613
106.000000	98.755	-24.2832
107.500000	98.701	-24.3918
109.000000	98.641	-24.5025
110.599998	98.572	-24.6417
112.000000	98.507	-24.7988
113.800003	98.421	-25.0447
115.000000	98.366	-25.2146
117.199997	98.280	-25.5002
118.000000	98.251	-25.5942
120.599998	98.141	-25.7453
122.000000	98.075	-25.6544
124.099998	97.985	-25.4326
125.000000	97.950	-25.3604
126.500000	97.892	-25.2908
128.000000	97.832	-25.2673
131.500000	97.694	-25.2581
132.000000	97.675	-25.2576
134.000000	97.601	-25.2569
136.000000	97.528	-25.2529
138.000000	97.455	-25.2455
140.000000	97.385	-25.2515
143.000000	97.288	-25.2614
145.000000	97.227	-25.2559
147.500000	97.147	-25.2416
150.000000	97.059	-25.2118
152.500000	96.974	-25.1494
155.000000	96.905	-25.0292
157.500000	96.849	-24.8549
160.000000	96.792	-24.6736
162.500000	96.723	-24.4966
165.000000	96.646	-24.3239
167.500000	96.561	-24.1549
170.000000	96.465	-23.9500
172.500000	96.365	-23.7026
175.000000	96.270	-23.4575
177.500000	96.184	-23.2441
180.000000	96.118	-23.0424
182.500000	96.074	-22.7952
185.000000	96.044	-22.4822
187.500000	96.019	-22.1843
190.000000	96.001	-22.0365
192.500000	95.987	-22.0626
195.000000	95.971	-22.1381
197.500000	95.951	-22.1664
200.000000	95.932	-22.1346
203.000000	95.913	-22.0465
206.000000	95.878	-21.9412
209.000000	95.804	-21.8083
212.000000	95.714	-21.6600
214.000000	95.657	-21.5620
218.000000	95.555	-21.3295
220.000000	95.509	-21.1907
224.000000	95.431	-20.9119
227.000000	95.382	-20.7272
230.000000	95.337	-20.5580
233.000000	95.293	-20.3901
236.000000	95.249	-20.2206
240.000000	95.186	-19.9996
243.000000	95.135	-19.8336
247.000000	95.064	-19.5881
250.000000	95.011	-19.3681
254.000000	94.947	-19.0177
258.000000	94.896	-18.6451
262.000000	94.852	-18.3228
265.000000	94.818	-18.1185
269.000000	94.767	-17.8508
272.000000	94.727	-17.6293
276.000000	94.675	-17.3031
280.000000	94.630	-16.9580
285.000000	94.587	-16.5405
290.000000	94.555	-16.2062
295.000000	94.519	-15.9659
300.000000	94.472	-15.7319
304.000000	94.433	-15.5116
307.000000	94.405	-15.3309
311.000000	94.368	-15.0829
315.000000	94.328	-14.8326
320.000000	94.274	-14.5017
325.000000	94.224	-14.1340
330.000000	94.179	-13.7465
335.000000	94.138	-13.3671
340.000000	94.097	-13.0097
345.000000	94.056	-12.6660
350.000000	94.019	-12.3196
355.000000	93.986	-11.9654
360.000000	93.954	-11.6066
365.000000	93.919	-11.2461
370.000000	93.883	-10.8844
375.000000	93.849	-10.5210
382.000000	93.806	-10.0098
387.000000	93.778	-9.6439
395.000000	93.737	-9.0567
400.000000	93.711	-8.6905
406.000000	93.681	-8.2599
412.000000	93.650	-7.8420
418.000000	93.619	-7.4202
425.000000	93.587	-6.8973
431.000000	93.567	-6.4299
437.000000	93.553	-5.9709
444.000000	93.541	-5.4653
450.000000	93.534	-5.0729
455.000000	93.529	-4.7905
462.000000	93.515	-4.4495
468.000000	93.496	-4.1547
475.000000	93.470	-3.7676
482.000000	93.446	-3.3534
487.000000	93.427	-3.0551
494.000000	93.399	-2.6187
500.000000	93.377	-2.2140
508.000000	93.355	-1.6638
515.000000	93.339	-1.2026
522.000000	93.321	-0.7506
530.000000	93.300	-0.2152
538.000000	93.282	0.3414
545.000000	93.270	0.8295
552.000000	93.261	1.3146
560.000000	93.253	1.8563
570.000000	93.245	2.5062
580.000000	93.234	3.1531
590.000000	93.220	3.8149
600.000000	93.207	4.5012
608.000000	93.203	5.0568
615.000000	93.202	5.5374
622.000000	93.201	6.0226
630.000000	93.200	6.6024
640.000000	93.204	7.3582
650.000000	93.217	8.1203
660.000000	93.242	8.8615
670.000000	93.280	9.5238
680.000000	93.314	10.1024
690.000000	93.338	10.6565
700.000000	93.355	11.2328
710.000000	93.372	11.8405
720.000000	93.393	12.4592
730.000000	93.416	13.0781
740.000000	93.442	13.6998
750.000000	93.469	14.3264
762.000000	93.503	15.0861
775.000000	93.545	15.9155
788.000000	93.594	16.7455
800.000000	93.644	17.5161
812.000000	93.703	18.2737
825.000000	93.775	18.9959
838.000000	93.840	19.5521
850.000000	93.877	19.9954
862.000000	93.890	20.5144
875.000000	93.895	21.2760
885.000000	93.910	22.0065
900.000000	93.965	23.2064
912.000000	94.038	24.1312
925.000000	94.138	25.0096
938.000000	94.250	25.7339
950.000000	94.355	26.2888
962.000000	94.458	26.7783
975.000000	94.565	27.2764
988.000000	94.669	27.7605
1000.000000	94.763	28.2057
1015.000000	94.881	28.7798
1030.000000	95.007	29.3542
1044.000000	95.136	29.8277
1060.000000	95.288	30.2344
1075.000000	95.424	30.5136
1090.000000	95.554	30.7474
1106.000000	95.690	30.9678
1120.000000	95.807	31.1405
1138.000000	95.952	31.3447
1150.000000	96.044	31.4748
1172.000000	96.208	31.7119
1180.000000	96.269	31.7985
1206.000000	96.481	32.0148
1220.000000	96.599	32.0370
1241.000000	96.763	31.9615
1250.000000	96.827	31.9120
1265.000000	96.926	31.8292
1280.000000	97.017	31.7548
1315.000000	97.217	31.6221
1320.000000	97.245	31.6038
1340.000000	97.354	31.5256
1360.000000	97.458	31.4571
1380.000000	97.559	31.4312
1400.000000	97.663	31.4702
1430.000000	97.846	31.5484
1450.000000	97.980	31.5189
1475.000000	98.151	31.4051
1500.000000	98.328	31.2649
1525.000000	98.515	31.1413
1550.000000	98.710	31.0627
1575.000000	98.904	31.0152
1600.000000	99.066	30.9075
1625.000000	99.154	30.6886
1650.000000	99.154	30.4059
1675.000000	99.095	30.1133
1700.000000	99.029	29.8275
1725.000000	98.993	29.5437
1750.000000	99.007	29.2787
1775.000000	99.069	29.0648
1800.000000	99.172	28.8863
1825.000000	99.301	28.6670
1850.000000	99.435	28.3665
1875.000000	99.564	28.0049
1900.000000	99.684	27.6236
1925.000000	99.796	27.2620
1950.000000	99.905	26.9320
1975.000000	100.017	26.5953
2000.000000	100.126	26.2012
2030.000000	100.246	25.6458
2060.000000	100.348	25.0405
2090.000000	100.431	24.4185
2120.000000	100.495	23.8027
2140.000000	100.528	23.4190
2180.000000	100.585	22.7644
2200.000000	100.617	22.4734
2240.000000	100.684	21.8785
2270.000000	100.730	21.4086
2300.000000	100.768	20.9482
2330.000000	100.802	20.5249
2360.000000	100.836	20.1209
2400.000000	100.883	19.5382
2430.000000	100.912	19.0574
2470.000000	100.937	18.3923
2500.000000	100.941	17.9034
2540.000000	100.929	17.3297
2580.000000	100.908	16.8885
2620.000000	100.887	16.5278
2650.000000	100.870	16.2840
2690.000000	100.842	16.0206
2720.000000	100.819	15.8938
2760.000000	100.796	15.7958
2800.000000	100.779	15.7145
2850.000000	100.762	15.5928
2900.000000	100.736	15.4761
2950.000000	100.696	15.4597
3000.000000	100.655	15.5677
3040.000000	100.625	15.7075
3070.000000	100.606	15.8491
3110.000000	100.586	16.1147
3150.000000	100.581	16.4656
3200.000000	100.598	16.9698
3250.000000	100.638	17.4989
3300.000000	100.691	18.0517
3350.000000	100.758	18.6592
3400.000000	100.841	19.2865
3450.000000	100.935	19.8698
3500.000000	101.031	20.4145
3550.000000	101.135	20.9341
3600.000000	101.252	21.3977
3650.000000	101.384	21.7701
3700.000000	101.528	22.0530
3750.000000	101.687	22.2730
3820.000000	101.941	22.4612
3870.000000	102.141	22.5103
3950.000000	102.491	22.4940
4000.000000	102.726	22.3789
4060.000000	103.012	22.0467
4120.000000	103.284	21.4781
4180.000000	103.533	20.6821
4250.000000	103.786	19.4753
4310.000000	103.973	18.2487
4370.000000	104.143	16.8461
4440.000000	104.328	14.9053
4500.000000	104.462	12.9403
4550.000000	104.550	11.1063
4620.000000	104.624	8.2927
4680.000000	104.635	5.7489
4750.000000	104.590	2.7625
4820.000000	104.491	-0.1791
4870.000000	104.390	-2.2361
4940.000000	104.203	-5.0054
5000.000000	104.000	-7.2222
5080.000000	103.664	-9.8195
5150.000000	103.317	-11.6271
5220.000000	102.936	-12.9608
5300.000000	102.472	-13.9376
5380.000000	101.984	-14.3518
5450.000000	101.535	-14.1999
5520.000000	101.083	-13.4576
5600.000000	100.624	-11.9420
5700.000000	100.229	-9.9321
5800.000000	99.932	-8.7153
5900.000000	99.583	-7.7009
6000.000000	99.209	-6.1745
6080.000000	98.936	-4.5548
6150.000000	98.733	-2.9403
6220.000000	98.566	-1.2134
6300.000000	98.415	0.8622
6400.000000	98.283	3.6078
6500.000000	98.219	6.4968
6600.000000	98.229	9.4540
6700.000000	98.314	12.4127
6800.000000	98.476	15.3497
6900.000000	98.722	18.2203
7000.000000	99.058	20.9299
7100.000000	99.483	23.3837
7200.000000	100.003	25.5125
7300.000000	100.634	27.2085
7400.000000	101.387	28.2700
7500.000000	102.250	28.4172
7620.000000	103.384	26.8972
7750.000000	104.609	22.3186
7880.000000	105.607	13.8380
8000.000000	106.109	2.7101
8120.000000	106.071	-10.0274
8250.000000	105.399	-22.9552
8380.000000	104.188	-32.6950
8500.000000	102.773	-38.1703
8620.000000	101.261	-40.6918
8750.000000	99.679	-41.0002
8850.000000	98.568	-40.0514
9000.000000	97.122	-37.3522
9120.000000	96.155	-34.4866
9250.000000	95.273	-30.9419
9380.000000	94.540	-27.0905
9500.000000	93.981	-23.3841
9620.000000	93.522	-19.6188
9750.000000	93.123	-15.5132
9880.000000	92.821	-11.4210
10000.000000	92.626	-7.7107
10150.000000	92.490	-3.2179
10300.000000	92.471	1.0350
10440.000000	92.555	4.6564
10600.000000	92.755	8.2314
10750.000000	93.015	10.9048
10900.000000	93.321	12.8325
11060.000000	93.687	14.0280
11200.000000	94.029	14.2584
11380.000000	94.443	13.2789
11500.000000	94.662	11.8181
11720.000000	94.853	7.7791
11800.000000	94.838	6.0503
12060.000000	94.465	0.5685
12200.000000	94.086	-1.7762
12410.000000	93.362	-3.9423
12500.000000	93.019	-4.3314
12650.000000	92.432	-4.2843
12800.000000	91.856	-3.4521
13150.000000	90.701	0.7742
13200.000000	90.567	1.5630
13400.000000	90.115	4.9756
13600.000000	89.791	8.5760
13800.000000	89.599	12.0666
14000.000000	89.579	15.1545
14300.000000	89.950	18.3487
14500.000000	90.429	19.0310
14750.000000	91.131	17.7106
15000.000000	91.736	13.6780
15250.000000	92.026	7.1442
15500.000000	91.825	-0.8914
15750.000000	91.034	-8.6149
16000.000000	89.688	-13.8814
16250.000000	88.051	-15.5796
16500.000000	86.581	-14.8021
16750.000000	85.566	-13.3533
17000.000000	84.960	-12.1162
17250.000000	84.633	-11.8817
17500.000000	84.416	-13.4148
17750.000000	84.091	-16.6580
18000.000000	83.471	-20.2957
18250.000000	82.496	-21.9353
18500.000000	81.384	-19.9883
18750.000000	80.625	-16.7168
19000.000000	80.331	-16.4979
19250.000000	80.061	-20.4230
19500.000000	79.534	-26.4361
19750.000000	78.827	-32.1135
