* Measurement data measured by REW V5.20.4
* Source: Mic in at front panel (Pink) (Realtek(R) Audio), MICROPHONE (Master Volume), L, volume: 0.250
* Format: 256k Log Swept Sine, 1 sweep at -12.0 dBFS with no timing reference
* Dated: Apr 18, 2022 8:04:47 PM
* REW Settings:
*  C-weighting compensation: Off
*  Target level: 75.0 dB
* Note: KZ EDA Bass R
* Measurement: KZ EDA Bass R
* Smoothing: 1/12 octave
* Frequency Step: 1/48 octave
* Start Frequency: 20.000 Hz
*
* Freq(Hz)	SPL(dB)	Phase(degrees)
20.000000	106.536	28.7896
20.299999	106.541	28.1487
20.600000	106.544	27.5424
20.900000	106.549	26.9557
21.200001	106.559	26.3647
21.400000	106.569	25.9554
21.799999	106.591	25.0917
22.000000	106.602	24.6395
22.400000	106.617	23.7162
22.700001	106.622	23.0371
23.000000	106.621	22.3959
23.299999	106.619	21.8024
23.600000	106.617	21.2530
24.000000	106.619	20.5703
24.299999	106.623	20.0750
24.700001	106.630	19.4143
25.000000	106.634	18.9107
25.400000	106.638	18.2271
25.799999	106.637	17.5358
26.200001	106.634	16.8469
26.500000	106.628	16.3391
26.900000	106.615	15.6832
27.200001	106.602	15.2133
27.600000	106.582	14.6201
28.000000	106.563	14.0628
28.500000	106.546	13.4000
29.000000	106.538	12.7449
29.500000	106.535	12.0692
30.000000	106.531	11.3624
30.400000	106.524	10.7871
30.700001	106.516	10.3632
31.100000	106.503	9.8270
31.500000	106.489	9.3342
32.000000	106.472	8.7689
32.500000	106.460	8.2203
33.000000	106.451	7.6476
33.500000	106.443	7.0459
34.000000	106.431	6.4408
34.500000	106.417	5.8608
35.000000	106.403	5.3148
35.500000	106.393	4.7964
36.000000	106.387	4.2977
36.500000	106.383	3.8152
37.000000	106.380	3.3440
37.500000	106.375	2.8742
38.200001	106.360	2.1958
38.700001	106.342	1.6888
39.500000	106.298	0.8566
40.000000	106.264	0.3422
40.599998	106.221	-0.2509
41.200001	106.176	-0.7963
41.799999	106.132	-1.2710
42.500000	106.091	-1.7380
43.099998	106.073	-2.1227
43.700001	106.064	-2.5625
44.400002	106.051	-3.1583
45.000000	106.029	-3.6865
45.500000	106.007	-4.1034
46.200001	105.975	-4.6477
46.799999	105.948	-5.0964
47.500000	105.914	-5.6084
48.200001	105.877	-6.1024
48.700001	105.849	-6.4456
49.400002	105.810	-6.9192
50.000000	105.778	-7.3202
50.799999	105.741	-7.8399
51.500000	105.711	-8.2742
52.200001	105.680	-8.6906
53.000000	105.640	-9.1424
53.799999	105.596	-9.5548
54.500000	105.561	-9.8857
55.200001	105.530	-10.2135
56.000000	105.494	-10.6005
57.000000	105.445	-11.0723
58.000000	105.396	-11.5349
59.000000	105.349	-12.0440
60.000000	105.298	-12.5770
60.799999	105.256	-12.9943
61.500000	105.221	-13.3528
62.200001	105.188	-13.7028
63.000000	105.152	-14.0867
64.000000	105.108	-14.5330
65.000000	105.063	-14.9111
66.000000	105.031	-15.2437
67.000000	105.014	-15.6583
68.000000	104.993	-16.1989
69.000000	104.959	-16.7794
70.000000	104.913	-17.3484
71.000000	104.852	-17.8517
72.000000	104.786	-18.2057
73.000000	104.733	-18.4272
74.000000	104.697	-18.6180
75.000000	104.666	-18.8405
76.199997	104.619	-19.1450
77.500000	104.559	-19.5034
78.800003	104.495	-19.9060
80.000000	104.438	-20.3270
81.199997	104.381	-20.7838
82.500000	104.321	-21.2785
83.800003	104.260	-21.7362
85.000000	104.204	-22.1155
86.199997	104.144	-22.4548
87.500000	104.073	-22.7871
88.500000	104.015	-23.0179
90.000000	103.930	-23.3350
91.199997	103.867	-23.5867
92.500000	103.803	-23.8611
93.800003	103.743	-24.1382
95.000000	103.690	-24.4030
96.199997	103.636	-24.6722
97.500000	103.572	-24.9563
98.800003	103.503	-25.2252
100.000000	103.437	-25.4612
101.500000	103.358	-25.7437
103.000000	103.284	-26.0148
104.400002	103.223	-26.2579
106.000000	103.159	-26.5196
107.500000	103.102	-26.7524
109.000000	103.043	-26.9813
110.599998	102.973	-27.2286
112.000000	102.905	-27.4551
113.800003	102.809	-27.7780
115.000000	102.743	-28.0182
117.199997	102.621	-28.4706
118.000000	102.577	-28.6133
120.599998	102.441	-28.8493
122.000000	102.379	-28.8439
124.099998	102.299	-28.8340
125.000000	102.264	-28.8533
126.500000	102.204	-28.9131
128.000000	102.145	-28.9980
131.500000	102.009	-29.2397
132.000000	101.990	-29.2720
134.000000	101.914	-29.3837
136.000000	101.839	-29.4641
138.000000	101.764	-29.5208
140.000000	101.689	-29.5851
143.000000	101.573	-29.7377
145.000000	101.491	-29.8740
147.500000	101.386	-30.0878
150.000000	101.277	-30.2980
152.500000	101.176	-30.4037
155.000000	101.094	-30.3824
157.500000	101.025	-30.3170
160.000000	100.958	-30.2781
162.500000	100.886	-30.2833
165.000000	100.804	-30.3179
167.500000	100.706	-30.3536
170.000000	100.587	-30.3580
172.500000	100.458	-30.3190
175.000000	100.330	-30.2526
177.500000	100.214	-30.1820
180.000000	100.117	-30.1188
182.500000	100.043	-30.0627
185.000000	99.989	-30.0116
187.500000	99.942	-29.9632
190.000000	99.894	-29.9122
192.500000	99.839	-29.8522
195.000000	99.777	-29.7772
197.500000	99.706	-29.6823
200.000000	99.628	-29.5538
203.000000	99.535	-29.3341
206.000000	99.448	-29.0651
209.000000	99.365	-28.8112
212.000000	99.279	-28.5913
214.000000	99.221	-28.4453
218.000000	99.115	-28.1061
220.000000	99.070	-27.9141
224.000000	98.997	-27.5454
227.000000	98.954	-27.3265
230.000000	98.914	-27.1729
233.000000	98.873	-27.0778
236.000000	98.827	-27.0233
240.000000	98.757	-26.9822
243.000000	98.696	-26.9490
247.000000	98.605	-26.8571
250.000000	98.534	-26.7283
254.000000	98.443	-26.4738
258.000000	98.363	-26.1813
262.000000	98.290	-25.9335
265.000000	98.234	-25.7803
269.000000	98.153	-25.5671
272.000000	98.091	-25.3745
276.000000	98.010	-25.0767
280.000000	97.934	-24.7574
285.000000	97.852	-24.3757
290.000000	97.782	-24.0815
295.000000	97.710	-23.8763
300.000000	97.629	-23.6578
304.000000	97.564	-23.4330
307.000000	97.516	-23.2420
311.000000	97.452	-22.9770
315.000000	97.385	-22.7117
320.000000	97.297	-22.3672
325.000000	97.213	-21.9877
330.000000	97.135	-21.5826
335.000000	97.061	-21.1747
340.000000	96.989	-20.7780
345.000000	96.918	-20.3882
350.000000	96.851	-19.9915
355.000000	96.788	-19.5844
360.000000	96.726	-19.1720
365.000000	96.662	-18.7571
370.000000	96.596	-18.3389
375.000000	96.532	-17.9163
382.000000	96.450	-17.3193
387.000000	96.396	-16.8900
395.000000	96.312	-16.1969
400.000000	96.261	-15.7599
406.000000	96.200	-15.2384
412.000000	96.139	-14.7240
418.000000	96.078	-14.2028
425.000000	96.011	-13.5631
431.000000	95.962	-12.9938
437.000000	95.920	-12.4301
444.000000	95.875	-11.7986
450.000000	95.841	-11.2963
455.000000	95.814	-10.9209
462.000000	95.771	-10.4469
468.000000	95.726	-10.0344
475.000000	95.671	-9.5058
482.000000	95.619	-8.9467
487.000000	95.581	-8.5432
494.000000	95.526	-7.9583
500.000000	95.481	-7.4255
508.000000	95.429	-6.7030
515.000000	95.388	-6.0895
522.000000	95.347	-5.4836
530.000000	95.298	-4.7704
538.000000	95.254	-4.0345
545.000000	95.220	-3.3885
552.000000	95.189	-2.7451
560.000000	95.157	-2.0220
570.000000	95.120	-1.1438
580.000000	95.081	-0.2674
590.000000	95.040	0.6262
600.000000	95.001	1.5474
608.000000	94.977	2.2916
615.000000	94.959	2.9380
622.000000	94.941	3.5900
630.000000	94.921	4.3618
640.000000	94.903	5.3589
650.000000	94.894	6.3623
660.000000	94.899	7.3444
670.000000	94.916	8.2478
680.000000	94.932	9.0684
690.000000	94.937	9.8655
700.000000	94.936	10.6852
710.000000	94.936	11.5365
720.000000	94.941	12.3996
730.000000	94.949	13.2637
740.000000	94.960	14.1307
750.000000	94.972	15.0018
762.000000	94.990	16.0515
775.000000	95.014	17.1893
788.000000	95.044	18.3284
800.000000	95.078	19.4020
812.000000	95.122	20.4982
825.000000	95.186	21.6393
838.000000	95.255	22.6669
850.000000	95.310	23.5623
862.000000	95.359	24.4833
875.000000	95.415	25.5261
885.000000	95.467	26.3329
900.000000	95.554	27.5013
912.000000	95.628	28.4030
925.000000	95.712	29.3563
938.000000	95.801	30.2751
950.000000	95.886	31.0851
962.000000	95.971	31.8661
975.000000	96.065	32.6943
988.000000	96.162	33.5115
1000.000000	96.252	34.2627
1015.000000	96.369	35.2128
1030.000000	96.498	36.1552
1044.000000	96.631	36.9667
1060.000000	96.789	37.7568
1075.000000	96.932	38.3946
1090.000000	97.071	38.9870
1106.000000	97.219	39.5903
1120.000000	97.348	40.0989
1138.000000	97.510	40.7353
1150.000000	97.616	41.1530
1172.000000	97.809	41.9133
1180.000000	97.881	42.1885
1206.000000	98.135	43.0089
1220.000000	98.277	43.3491
1241.000000	98.482	43.7386
1250.000000	98.564	43.8837
1265.000000	98.695	44.1182
1280.000000	98.820	44.3520
1315.000000	99.104	44.9022
1320.000000	99.145	44.9772
1340.000000	99.306	45.2621
1360.000000	99.464	45.5396
1380.000000	99.619	45.8441
1400.000000	99.780	46.1987
1430.000000	100.050	46.7263
1450.000000	100.244	46.9817
1475.000000	100.492	47.2085
1500.000000	100.748	47.3924
1525.000000	101.017	47.5771
1550.000000	101.297	47.7913
1575.000000	101.578	48.0203
1600.000000	101.829	48.1702
1625.000000	102.007	48.1864
1650.000000	102.102	48.1122
1675.000000	102.144	47.9967
1700.000000	102.184	47.8519
1725.000000	102.259	47.6692
1750.000000	102.385	47.4655
1775.000000	102.561	47.2775
1800.000000	102.780	47.0952
1825.000000	103.024	46.8442
1850.000000	103.276	46.4791
1875.000000	103.526	46.0104
1900.000000	103.771	45.4692
1925.000000	104.011	44.8871
1950.000000	104.249	44.2715
1975.000000	104.489	43.5805
2000.000000	104.726	42.7614
2030.000000	104.996	41.5988
2060.000000	105.242	40.2782
2090.000000	105.462	38.8317
2120.000000	105.654	37.2845
2140.000000	105.766	36.2226
2180.000000	105.963	34.0829
2200.000000	106.054	32.9915
2240.000000	106.214	30.7059
2270.000000	106.305	28.9174
2300.000000	106.367	27.1238
2330.000000	106.405	25.3754
2360.000000	106.426	23.6704
2400.000000	106.428	21.4080
2430.000000	106.407	19.7186
2470.000000	106.343	17.5259
2500.000000	106.266	15.9644
2540.000000	106.129	14.0708
2580.000000	105.966	12.4459
2620.000000	105.791	11.0437
2650.000000	105.653	10.1125
2690.000000	105.458	9.0546
2720.000000	105.307	8.4197
2760.000000	105.111	7.7543
2800.000000	104.923	7.2222
2850.000000	104.696	6.6837
2900.000000	104.466	6.2932
2950.000000	104.230	6.1277
3000.000000	103.999	6.1968
3040.000000	103.825	6.3760
3070.000000	103.701	6.5828
3110.000000	103.548	6.9729
3150.000000	103.416	7.4782
3200.000000	103.285	8.1963
3250.000000	103.181	8.9454
3300.000000	103.091	9.7265
3350.000000	103.010	10.5981
3400.000000	102.942	11.5682
3450.000000	102.885	12.6079
3500.000000	102.837	13.7276
3550.000000	102.807	14.9158
3600.000000	102.804	16.1068
3650.000000	102.827	17.2432
3700.000000	102.871	18.3242
3750.000000	102.936	19.3890
3820.000000	103.072	20.8644
3870.000000	103.201	21.9116
3950.000000	103.464	23.6064
4000.000000	103.665	24.6224
4060.000000	103.928	25.7125
4120.000000	104.202	26.6389
4180.000000	104.484	27.3948
4250.000000	104.818	28.0287
4310.000000	105.112	28.3692
4370.000000	105.428	28.4979
4440.000000	105.831	28.2625
4500.000000	106.199	27.6416
4550.000000	106.514	26.7958
4620.000000	106.955	25.0662
4680.000000	107.320	23.0719
4750.000000	107.718	20.1584
4820.000000	108.071	16.5802
4870.000000	108.279	13.6119
4940.000000	108.485	8.9590
5000.000000	108.563	4.6445
5080.000000	108.503	-1.2368
5150.000000	108.296	-6.1418
5220.000000	107.961	-10.5578
5300.000000	107.448	-14.8209
5380.000000	106.826	-18.1459
5450.000000	106.214	-20.2600
5520.000000	105.557	-21.6198
5600.000000	104.780	-22.2672
5700.000000	103.817	-21.7700
5800.000000	102.949	-19.9346
5900.000000	102.281	-17.3927
6000.000000	101.807	-15.0561
6080.000000	101.481	-13.4299
6150.000000	101.203	-11.9730
6220.000000	100.937	-10.3602
6300.000000	100.661	-8.2886
6400.000000	100.379	-5.3918
6500.000000	100.181	-2.2606
6600.000000	100.075	0.9699
6700.000000	100.056	4.2117
6800.000000	100.123	7.4421
6900.000000	100.284	10.6233
7000.000000	100.544	13.6653
7100.000000	100.906	16.4751
7200.000000	101.380	18.9803
7300.000000	101.986	21.0616
7400.000000	102.740	22.4923
7500.000000	103.636	22.9453
7620.000000	104.846	21.5886
7750.000000	106.171	16.6903
7880.000000	107.234	7.1107
8000.000000	107.715	-5.6532
8120.000000	107.554	-20.0765
8250.000000	106.651	-34.1239
8380.000000	105.155	-43.9845
8500.000000	103.470	-48.9553
8620.000000	101.707	-50.7214
8750.000000	99.887	-50.1520
8850.000000	98.616	-48.5380
9000.000000	96.962	-44.8627
9120.000000	95.848	-41.2233
9250.000000	94.819	-36.8300
9380.000000	93.945	-32.0891
9500.000000	93.261	-27.4976
9620.000000	92.681	-22.7747
9750.000000	92.161	-17.5573
9880.000000	91.746	-12.2957
10000.000000	91.450	-7.4595
10150.000000	91.184	-1.4546
10300.000000	91.025	4.5229
10440.000000	90.974	10.0609
10600.000000	91.036	16.3342
10750.000000	91.219	22.1264
10900.000000	91.540	27.7511
11060.000000	92.070	33.4720
11200.000000	92.723	38.1113
11380.000000	93.848	43.2773
11500.000000	94.781	45.9706
11720.000000	96.800	48.2943
11800.000000	97.583	47.9184
12060.000000	99.903	40.1060
12200.000000	100.753	31.2373
12410.000000	101.170	13.9850
12500.000000	101.001	6.5161
12650.000000	100.301	-4.1160
12800.000000	99.199	-11.3635
13150.000000	96.051	-15.9127
13200.000000	95.618	-15.5607
13400.000000	94.064	-12.7493
13600.000000	92.839	-8.5736
13800.000000	91.934	-3.8325
14000.000000	91.343	0.9786
14300.000000	91.080	7.6003
14500.000000	91.298	11.2385
14750.000000	91.911	14.5034
15000.000000	92.767	15.8898
15250.000000	93.704	14.7141
15500.000000	94.524	10.0413
15750.000000	94.993	1.1494
16000.000000	94.889	-11.3162
16250.000000	94.117	-24.6776
16500.000000	92.786	-35.8553
16750.000000	91.102	-43.2792
17000.000000	89.248	-46.7994
17250.000000	87.370	-47.0566
17500.000000	85.611	-44.9274
17750.000000	84.118	-41.6302
18000.000000	82.952	-38.7025
18250.000000	81.948	-36.7502
18500.000000	80.829	-34.4924
18750.000000	79.466	-29.7426
19000.000000	78.008	-21.2918
19250.000000	76.879	-10.1788
19500.000000	76.469	0.7325
19750.000000	76.635	8.7444
