* Measurement data measured by REW V5.20.13
* Source: Mic in at front panel (Pink) (Realtek(R) Audio), MICROPHONE (Master Volume), L, volume: 0.250
* Format: 256k Log Swept Sine, 1 sweep at -12.0 dBFS with no timing reference
* Dated: Sep 27, 2022 4:59:28 PM
* REW Settings:
*  C-weighting compensation: Off
*  Target level: 75.0 dB
* Note: KZ PL1 Hifi R
* Measurement: KZ PL1 Hifi R
* Smoothing: 1/12 octave
* Frequency Step: 1/48 octave
* Start Frequency: 20.000 Hz
*
* Freq(Hz)	SPL(dB)	Phase(degrees)
20.000000	91.329	-158.3619
20.299999	91.330	-159.0276
20.600000	91.331	-159.6498
20.900000	91.334	-160.2344
21.200001	91.341	-160.7986
21.400000	91.348	-161.1771
21.799999	91.366	-161.9583
22.000000	91.374	-162.3662
22.400000	91.387	-163.2113
22.700001	91.390	-163.8508
23.000000	91.389	-164.4723
23.299999	91.384	-165.0639
23.600000	91.380	-165.6266
24.000000	91.376	-166.3479
24.299999	91.375	-166.8852
24.700001	91.373	-167.6104
25.000000	91.368	-168.1561
25.400000	91.357	-168.8642
25.799999	91.341	-169.5238
26.200001	91.326	-170.1287
26.500000	91.318	-170.5583
26.900000	91.310	-171.1211
27.200001	91.305	-171.5466
27.600000	91.296	-172.1182
28.000000	91.285	-172.6768
28.500000	91.267	-173.3277
29.000000	91.254	-173.9272
29.500000	91.247	-174.5155
30.000000	91.245	-175.1359
30.400000	91.241	-175.6607
30.700001	91.235	-176.0629
31.100000	91.224	-176.5944
31.500000	91.208	-177.1065
32.000000	91.187	-177.7083
32.500000	91.165	-178.2705
33.000000	91.146	-178.8060
33.500000	91.129	-179.3268
34.000000	91.113	-179.8391
34.500000	91.098	179.6546
35.000000	91.083	179.1486
35.500000	91.068	178.6351
36.000000	91.049	178.1186
36.500000	91.024	177.6224
37.000000	90.999	177.1712
37.500000	90.978	176.7576
38.200001	90.963	176.1528
38.700001	90.955	175.6485
39.500000	90.929	174.7632
40.000000	90.903	174.2324
40.599998	90.870	173.6478
41.200001	90.841	173.0996
41.799999	90.814	172.5764
42.500000	90.786	171.9999
43.099998	90.767	171.5128
43.700001	90.747	171.0078
44.400002	90.716	170.4200
45.000000	90.681	169.9593
45.500000	90.650	169.6093
46.200001	90.607	169.1399
46.799999	90.567	168.7403
47.500000	90.514	168.2917
48.200001	90.462	167.8652
48.700001	90.426	167.5549
49.400002	90.377	167.0882
50.000000	90.331	166.6690
50.799999	90.266	166.1360
51.500000	90.210	165.7244
52.200001	90.161	165.3591
53.000000	90.114	164.9834
53.799999	90.076	164.6344
54.500000	90.047	164.3289
55.200001	90.017	164.0241
56.000000	89.978	163.7155
57.000000	89.931	163.4136
58.000000	89.893	163.1213
59.000000	89.858	162.7720
60.000000	89.822	162.3732
60.799999	89.793	162.0146
61.500000	89.765	161.6732
62.200001	89.734	161.3241
63.000000	89.695	160.9414
64.000000	89.647	160.4984
65.000000	89.604	160.0609
66.000000	89.564	159.5859
67.000000	89.519	159.0813
68.000000	89.468	158.5915
69.000000	89.418	158.1331
70.000000	89.371	157.6917
71.000000	89.325	157.2621
72.000000	89.278	156.8642
73.000000	89.230	156.5177
74.000000	89.182	156.2231
75.000000	89.136	155.9582
76.199997	89.082	155.6209
77.500000	89.018	155.1900
78.800003	88.944	154.6960
80.000000	88.872	154.1901
81.199997	88.799	153.6532
82.500000	88.723	153.0621
83.800003	88.650	152.5018
85.000000	88.582	152.0580
86.199997	88.509	151.7098
87.500000	88.426	151.4142
88.500000	88.356	151.1994
90.000000	88.244	150.8165
91.199997	88.155	150.4048
92.500000	88.065	149.8356
93.800003	87.978	149.2531
95.000000	87.908	148.9091
96.199997	87.866	148.8343
97.500000	87.852	148.9459
98.800003	87.849	149.1161
100.000000	87.836	149.2151
101.500000	87.786	149.1642
103.000000	87.697	148.9483
104.400002	87.601	148.6676
106.000000	87.498	148.3207
107.500000	87.416	148.0072
109.000000	87.341	147.7023
110.599998	87.257	147.3553
112.000000	87.178	147.0335
113.800003	87.079	146.6607
115.000000	87.025	146.4682
117.199997	86.955	146.2372
118.000000	86.933	146.1768
120.599998	86.829	145.9755
122.000000	86.741	145.9160
124.099998	86.598	145.8898
125.000000	86.541	145.8596
126.500000	86.454	145.7529
128.000000	86.378	145.5934
131.500000	86.224	145.3607
132.000000	86.204	145.3746
134.000000	86.124	145.5468
136.000000	86.048	145.7168
138.000000	85.968	145.6163
140.000000	85.881	145.2773
143.000000	85.767	144.7794
145.000000	85.694	144.5862
147.500000	85.574	144.4442
150.000000	85.432	144.3929
152.500000	85.316	144.4246
155.000000	85.230	144.4944
157.500000	85.157	144.5475
160.000000	85.085	144.4776
162.500000	85.005	144.3375
165.000000	84.912	144.2172
167.500000	84.809	144.1490
170.000000	84.706	144.1441
172.500000	84.613	144.1896
175.000000	84.530	144.2415
177.500000	84.447	144.2774
180.000000	84.362	144.3076
182.500000	84.276	144.3350
185.000000	84.187	144.3662
187.500000	84.097	144.4141
190.000000	84.009	144.4865
192.500000	83.928	144.5945
195.000000	83.854	144.7509
197.500000	83.788	144.9551
200.000000	83.727	145.1875
203.000000	83.663	145.4500
206.000000	83.609	145.6279
209.000000	83.557	145.6960
212.000000	83.493	145.6852
214.000000	83.443	145.6665
218.000000	83.327	145.6932
220.000000	83.268	145.7558
224.000000	83.156	145.9650
227.000000	83.079	146.1635
230.000000	83.008	146.3385
233.000000	82.939	146.4341
236.000000	82.867	146.4623
240.000000	82.767	146.4963
243.000000	82.691	146.5528
247.000000	82.590	146.6785
250.000000	82.514	146.8248
254.000000	82.417	147.0953
258.000000	82.332	147.4020
262.000000	82.256	147.6663
265.000000	82.198	147.8320
269.000000	82.116	148.0539
272.000000	82.053	148.2424
276.000000	81.971	148.5240
280.000000	81.895	148.8243
285.000000	81.810	149.1904
290.000000	81.737	149.4802
295.000000	81.659	149.6729
300.000000	81.570	149.8601
304.000000	81.497	150.0572
307.000000	81.443	150.2305
311.000000	81.373	150.4726
315.000000	81.301	150.7090
320.000000	81.210	151.0154
325.000000	81.122	151.3677
330.000000	81.041	151.7458
335.000000	80.964	152.1159
340.000000	80.890	152.4681
345.000000	80.816	152.8112
350.000000	80.743	153.1638
355.000000	80.672	153.5347
360.000000	80.602	153.9111
365.000000	80.534	154.2799
370.000000	80.466	154.6470
375.000000	80.401	155.0214
382.000000	80.312	155.5582
387.000000	80.251	155.9467
395.000000	80.158	156.5787
400.000000	80.102	156.9750
406.000000	80.039	157.4377
412.000000	79.977	157.8880
418.000000	79.914	158.3490
425.000000	79.842	158.9271
431.000000	79.787	159.4478
437.000000	79.738	159.9617
444.000000	79.688	160.5326
450.000000	79.649	160.9809
455.000000	79.618	161.3087
462.000000	79.567	161.7137
468.000000	79.515	162.0673
475.000000	79.450	162.5310
482.000000	79.389	163.0308
487.000000	79.346	163.3934
494.000000	79.284	163.9207
500.000000	79.234	164.4045
508.000000	79.176	165.0617
515.000000	79.129	165.6150
522.000000	79.081	166.1578
530.000000	79.026	166.7953
538.000000	78.974	167.4526
545.000000	78.932	168.0305
552.000000	78.894	168.6088
560.000000	78.855	169.2614
570.000000	78.809	170.0556
580.000000	78.761	170.8517
590.000000	78.715	171.6636
600.000000	78.671	172.4988
608.000000	78.640	173.1755
615.000000	78.614	173.7639
622.000000	78.587	174.3585
630.000000	78.559	175.0653
640.000000	78.532	175.9815
650.000000	78.517	176.9022
660.000000	78.515	177.8014
670.000000	78.522	178.6254
680.000000	78.528	179.3682
690.000000	78.526	-179.9151
700.000000	78.518	-179.1797
710.000000	78.512	-178.4146
720.000000	78.510	-177.6364
730.000000	78.511	-176.8555
740.000000	78.513	-176.0710
750.000000	78.519	-175.2814
762.000000	78.531	-174.3272
775.000000	78.551	-173.2919
788.000000	78.576	-172.2589
800.000000	78.607	-171.2941
812.000000	78.650	-170.3218
825.000000	78.712	-169.3265
838.000000	78.780	-168.4546
850.000000	78.838	-167.7310
862.000000	78.890	-167.0269
875.000000	78.943	-166.2554
885.000000	78.985	-165.6550
900.000000	79.050	-164.7617
912.000000	79.104	-164.0514
925.000000	79.166	-163.2885
938.000000	79.230	-162.5492
950.000000	79.290	-161.8936
962.000000	79.349	-161.2494
975.000000	79.412	-160.5440
988.000000	79.476	-159.8215
1000.000000	79.537	-159.1330
1015.000000	79.622	-158.2315
1030.000000	79.725	-157.3133
1044.000000	79.839	-156.5127
1060.000000	79.978	-155.7332
1075.000000	80.106	-155.1117
1090.000000	80.231	-154.5453
1106.000000	80.361	-153.9826
1120.000000	80.473	-153.5225
1138.000000	80.617	-152.9659
1150.000000	80.713	-152.6116
1172.000000	80.893	-151.9893
1180.000000	80.961	-151.7720
1206.000000	81.196	-151.1786
1220.000000	81.324	-150.9902
1241.000000	81.503	-150.8690
1250.000000	81.572	-150.8532
1265.000000	81.679	-150.8508
1280.000000	81.776	-150.8631
1315.000000	81.967	-150.8670
1320.000000	81.991	-150.8596
1340.000000	82.080	-150.7941
1360.000000	82.162	-150.6393
1380.000000	82.249	-150.3749
1400.000000	82.353	-150.0364
1430.000000	82.557	-149.6716
1450.000000	82.701	-149.7207
1475.000000	82.843	-150.1037
1500.000000	82.913	-150.6040
1525.000000	82.911	-150.8644
1550.000000	82.876	-150.6169
1575.000000	82.865	-149.8610
1600.000000	82.913	-148.8584
1625.000000	83.013	-147.8669
1650.000000	83.146	-146.9784
1675.000000	83.297	-146.2009
1700.000000	83.460	-145.5315
1725.000000	83.627	-144.9647
1750.000000	83.792	-144.4618
1775.000000	83.956	-143.9615
1800.000000	84.127	-143.4467
1825.000000	84.307	-142.9616
1850.000000	84.488	-142.5152
1875.000000	84.669	-142.0528
1900.000000	84.854	-141.4986
1925.000000	85.061	-140.7961
1950.000000	85.316	-139.9637
1975.000000	85.639	-139.1538
2000.000000	86.028	-138.6155
2030.000000	86.540	-138.6330
2060.000000	87.037	-139.4897
2090.000000	87.468	-141.0142
2120.000000	87.816	-142.8813
2140.000000	88.009	-144.1658
2180.000000	88.342	-146.6285
2200.000000	88.498	-147.8225
2240.000000	88.799	-150.3066
2270.000000	89.006	-152.3689
2300.000000	89.179	-154.6565
2330.000000	89.299	-157.1345
2360.000000	89.349	-159.6723
2400.000000	89.301	-162.7646
2430.000000	89.208	-164.6004
2470.000000	89.076	-166.3601
2500.000000	89.004	-167.3382
2540.000000	88.950	-168.4413
2580.000000	88.936	-169.4896
2620.000000	88.948	-170.6026
2650.000000	88.963	-171.4879
2690.000000	88.989	-172.6957
2720.000000	89.020	-173.6304
2760.000000	89.081	-175.0367
2800.000000	89.147	-176.7887
2850.000000	89.187	-179.5440
2900.000000	89.120	177.2220
2950.000000	88.900	173.9272
3000.000000	88.513	171.2253
3040.000000	88.116	169.9513
3070.000000	87.806	169.6218
3110.000000	87.437	169.8842
3150.000000	87.163	170.5999
3200.000000	86.961	171.5564
3250.000000	86.868	172.1596
3300.000000	86.811	172.2957
3350.000000	86.739	172.1529
3400.000000	86.648	172.0123
3450.000000	86.572	171.9702
3500.000000	86.540	171.7631
3550.000000	86.519	171.0176
3600.000000	86.426	169.7374
3650.000000	86.198	168.4353
3700.000000	85.841	167.8377
3750.000000	85.436	168.3616
3820.000000	84.983	170.5496
3870.000000	84.796	172.5383
3950.000000	84.711	175.7340
4000.000000	84.772	177.4753
4060.000000	84.919	179.0761
4120.000000	85.104	-179.8815
4180.000000	85.304	-179.3084
4250.000000	85.550	-179.2309
4310.000000	85.755	-179.8207
4370.000000	85.903	178.8477
4440.000000	85.896	176.6667
4500.000000	85.687	175.1964
4550.000000	85.421	174.9369
4620.000000	85.095	176.0204
4680.000000	84.955	177.5070
4750.000000	84.926	179.2256
4820.000000	85.007	-179.2197
4870.000000	85.123	-178.3141
4940.000000	85.343	-177.5364
5000.000000	85.549	-177.4108
5080.000000	85.797	-177.9335
5150.000000	85.970	-178.8632
5220.000000	86.096	179.8727
5300.000000	86.171	178.0945
5380.000000	86.152	176.1044
5450.000000	86.047	174.3950
5520.000000	85.861	172.9670
5600.000000	85.578	171.9377
5700.000000	85.206	171.6756
5800.000000	84.909	172.1336
5900.000000	84.699	172.6589
6000.000000	84.523	173.0130
6080.000000	84.381	173.1781
6150.000000	84.244	173.2524
6220.000000	84.084	173.2923
6300.000000	83.857	173.4083
6400.000000	83.497	173.9826
6500.000000	83.080	175.4594
6600.000000	82.684	178.0567
6700.000000	82.410	-178.5219
6800.000000	82.288	-174.8917
6900.000000	82.268	-171.3522
7000.000000	82.317	-167.7188
7100.000000	82.473	-163.8011
7200.000000	82.793	-159.7522
7300.000000	83.302	-155.9586
7400.000000	83.984	-152.8307
7500.000000	84.794	-150.7228
7620.000000	85.858	-149.9647
7750.000000	86.977	-151.8740
7880.000000	87.851	-156.8477
8000.000000	88.286	-163.3680
8120.000000	88.326	-170.2442
8250.000000	87.987	-176.5241
8380.000000	87.372	179.4212
8500.000000	86.694	178.0033
8620.000000	86.070	178.5759
8750.000000	85.613	-179.4935
8850.000000	85.447	-177.8535
9000.000000	85.384	-175.9882
9120.000000	85.372	-174.9057
9250.000000	85.375	-173.4565
9380.000000	85.515	-171.4263
9500.000000	85.866	-169.6122
9620.000000	86.400	-168.7863
9750.000000	87.044	-169.7624
9880.000000	87.596	-172.8670
10000.000000	87.920	-177.2840
10150.000000	87.998	176.1244
10300.000000	87.709	169.7580
10440.000000	87.172	165.0749
10600.000000	86.375	161.7365
10750.000000	85.592	160.3099
10900.000000	84.867	159.8950
11060.000000	84.172	159.9778
11200.000000	83.597	160.3284
11380.000000	82.853	161.3789
11500.000000	82.357	162.6316
11720.000000	81.530	166.0686
11800.000000	81.276	167.5775
12060.000000	80.664	172.6817
12200.000000	80.435	175.2501
12410.000000	80.130	178.8265
12500.000000	79.993	-179.6237
12650.000000	79.754	-176.7611
12800.000000	79.531	-173.3234
13150.000000	79.414	-163.1742
13200.000000	79.471	-161.6110
13400.000000	79.906	-155.5634
13600.000000	80.639	-150.3698
13800.000000	81.586	-146.6310
14000.000000	82.640	-144.8131
14300.000000	84.152	-146.3306
14500.000000	84.937	-150.1008
14750.000000	85.524	-156.7557
15000.000000	85.687	-163.6018
15250.000000	85.587	-169.0822
15500.000000	85.458	-172.9419
15750.000000	85.508	-176.0390
16000.000000	85.830	-179.9994
16250.000000	86.299	173.1200
16500.000000	86.553	161.9920
16750.000000	86.184	148.1346
17000.000000	84.996	135.9796
17250.000000	83.102	129.2266
17500.000000	80.810	128.2905
17750.000000	78.471	131.4778
18000.000000	76.368	136.9404
18250.000000	74.649	143.4546
18500.000000	73.329	150.3609
18750.000000	72.348	157.3387
19000.000000	71.632	164.2498
19250.000000	71.129	171.0255
19500.000000	70.802	177.5815
19750.000000	70.623	-176.2206
20000.000000	70.560	-170.5746
