* Measurement data measured by REW V5.20
* Source: Mic in at front panel (Pink) (Realtek(R) Audio), MICROPHONE (Master Volume), L, volume: 0.250
* Format: 256k Log Swept Sine, 1 sweep at -12.0 dBFS with no timing reference
* Dated: Oct 21, 2021 5:29:19 PM
* REW Settings:
*  C-weighting compensation: Off
*  Target level: 75.0 dB
* Note: KZ vx10 tanya
* Measurement: edx L Oct 21
* Smoothing: 1/12 octave
* Frequency Step: 1/48 octave
* Start Frequency: 20.000 Hz
*
* Freq(Hz)	SPL(dB)	Phase(degrees)
20.000000	112.1	-154.7395
20.299999	112.1	-155.4446
20.600000	112.1	-156.1394
20.900000	112.1	-156.8258
21.200001	112.1	-157.5052
21.400000	112.1	-157.9545
21.799999	112.1	-158.8428
22.000000	112.1	-159.2805
22.400000	112.1	-160.1397
22.700001	112.1	-160.7682
23.000000	112.1	-161.3829
23.299999	112.1	-161.9857
23.600000	112.1	-162.5788
24.000000	112.1	-163.3575
24.299999	112.1	-163.9335
24.700001	112.1	-164.6903
25.000000	112.1	-165.2488
25.400000	112.1	-165.9813
25.799999	112.1	-166.7021
26.200001	112.1	-167.4146
26.500000	112.1	-167.9447
26.900000	112.1	-168.6458
27.200001	112.1	-169.1663
27.600000	112.1	-169.8515
28.000000	112.1	-170.5258
28.500000	112.1	-171.3539
29.000000	112.1	-172.1678
29.500000	112.1	-172.9680
30.000000	112.1	-173.7542
30.400000	112.1	-174.3738
30.700001	112.0	-174.8339
31.100000	112.0	-175.4430
31.500000	112.0	-176.0479
32.000000	112.0	-176.7962
32.500000	112.0	-177.5307
33.000000	112.0	-178.2466
33.500000	112.0	-178.9443
34.000000	112.0	-179.6289
34.500000	112.0	179.6945
35.000000	112.0	179.0243
35.500000	111.9	178.3610
36.000000	111.9	177.7056
36.500000	111.9	177.0577
37.000000	111.9	176.4163
37.500000	111.9	175.7816
38.200001	111.9	174.9058
38.700001	111.9	174.2902
39.500000	111.8	173.3218
40.000000	111.8	172.7263
40.599998	111.8	172.0214
41.200001	111.8	171.3271
41.799999	111.8	170.6430
42.500000	111.7	169.8573
43.099998	111.7	169.1954
43.700001	111.7	168.5443
44.400002	111.7	167.7964
45.000000	111.6	167.1633
45.500000	111.6	166.6404
46.200001	111.6	165.9146
46.799999	111.6	165.2982
47.500000	111.5	164.5865
48.200001	111.5	163.8846
48.700001	111.5	163.3904
49.400002	111.4	162.7092
50.000000	111.4	162.1346
50.799999	111.4	161.3818
51.500000	111.3	160.7378
52.200001	111.3	160.1117
53.000000	111.2	159.4257
53.799999	111.1	158.7798
54.500000	111.1	158.2507
55.200001	111.0	157.7541
56.000000	111.0	157.2229
57.000000	110.9	156.5971
58.000000	110.9	155.9756
59.000000	110.8	155.3256
60.000000	110.7	154.6397
60.799999	110.7	154.0697
61.500000	110.6	153.5648
62.200001	110.6	153.0649
63.000000	110.5	152.5093
64.000000	110.4	151.8428
65.000000	110.4	151.2052
66.000000	110.3	150.5900
67.000000	110.2	149.9920
68.000000	110.1	149.4083
69.000000	110.0	148.8367
70.000000	109.9	148.2749
71.000000	109.8	147.7219
72.000000	109.7	147.1816
73.000000	109.7	146.6595
74.000000	109.6	146.1537
75.000000	109.5	145.6594
76.199997	109.4	145.0837
77.500000	109.2	144.4865
78.800003	109.1	143.9148
80.000000	109.0	143.4157
81.199997	108.9	142.9609
82.500000	108.8	142.5125
83.800003	108.6	142.0880
85.000000	108.5	141.7131
86.199997	108.4	141.3589
87.500000	108.3	141.0031
88.500000	108.2	140.7484
90.000000	108.1	140.3928
91.199997	107.9	140.1304
92.500000	107.8	139.8683
93.800003	107.7	139.6331
95.000000	107.6	139.4492
96.199997	107.5	139.3110
97.500000	107.3	139.2280
98.800003	107.2	139.2219
100.000000	107.1	139.2840
101.500000	107.0	139.4448
103.000000	106.9	139.6555
104.400002	106.8	139.8243
106.000000	106.7	139.9114
107.500000	106.6	139.8719
109.000000	106.6	139.7473
110.599998	106.5	139.5849
112.000000	106.4	139.4662
113.800003	106.3	139.3749
115.000000	106.2	139.3346
117.199997	106.1	139.2355
118.000000	106.0	139.1915
120.599998	105.8	139.0726
122.000000	105.8	139.0037
124.099998	105.7	138.8846
125.000000	105.6	138.8445
126.500000	105.6	138.8029
128.000000	105.5	138.7868
131.500000	105.3	138.8150
132.000000	105.2	138.8256
134.000000	105.1	138.8792
136.000000	105.0	138.9480
138.000000	104.9	139.0282
140.000000	104.8	139.1197
143.000000	104.7	139.2848
145.000000	104.6	139.4086
147.500000	104.5	139.5673
150.000000	104.3	139.7278
152.500000	104.2	139.8976
155.000000	104.1	140.0805
157.500000	104.0	140.2726
160.000000	103.9	140.4710
162.500000	103.8	140.6706
165.000000	103.7	140.8622
167.500000	103.6	141.0554
170.000000	103.5	141.2610
172.500000	103.4	141.4760
175.000000	103.3	141.6932
177.500000	103.2	141.9092
180.000000	103.1	142.1283
182.500000	103.0	142.3552
185.000000	102.9	142.5905
187.500000	102.8	142.8341
190.000000	102.8	143.0886
192.500000	102.7	143.3600
195.000000	102.6	143.6576
197.500000	102.5	143.9930
200.000000	102.4	144.3791
203.000000	102.3	144.9241
206.000000	102.3	145.5556
209.000000	102.2	146.2231
212.000000	102.2	146.8244
214.000000	102.2	147.1365
218.000000	102.2	147.5022
220.000000	102.1	147.5835
224.000000	102.1	147.6665
227.000000	102.0	147.7338
230.000000	102.0	147.8374
233.000000	101.9	147.9796
236.000000	101.9	148.1534
240.000000	101.8	148.4232
243.000000	101.7	148.6482
247.000000	101.6	148.9693
250.000000	101.6	149.2203
254.000000	101.5	149.5625
258.000000	101.4	149.9090
262.000000	101.3	150.2614
265.000000	101.3	150.5327
269.000000	101.2	150.9016
272.000000	101.2	151.1803
276.000000	101.1	151.5525
280.000000	101.1	151.9245
285.000000	101.0	152.3883
290.000000	100.9	152.8500
295.000000	100.9	153.3099
300.000000	100.8	153.7692
304.000000	100.8	154.1358
307.000000	100.7	154.4101
311.000000	100.7	154.7748
315.000000	100.6	155.1380
320.000000	100.6	155.5894
325.000000	100.5	156.0378
330.000000	100.5	156.4823
335.000000	100.4	156.9232
340.000000	100.4	157.3615
345.000000	100.3	157.7963
350.000000	100.3	158.2264
355.000000	100.3	158.6521
360.000000	100.2	159.0748
365.000000	100.2	159.4950
370.000000	100.1	159.9112
375.000000	100.1	160.3221
382.000000	100.1	160.8878
387.000000	100.0	161.2853
395.000000	100.0	161.9108
400.000000	100.0	162.2957
406.000000	99.9	162.7516
412.000000	99.9	163.2005
418.000000	99.9	163.6420
425.000000	99.8	164.1484
431.000000	99.8	164.5757
437.000000	99.8	164.9966
444.000000	99.7	165.4794
450.000000	99.7	165.8860
455.000000	99.7	166.2203
462.000000	99.7	166.6818
468.000000	99.7	167.0717
475.000000	99.6	167.5201
482.000000	99.6	167.9619
487.000000	99.6	168.2739
494.000000	99.6	168.7063
500.000000	99.6	169.0735
508.000000	99.5	169.5587
515.000000	99.5	169.9794
522.000000	99.5	170.3965
530.000000	99.5	170.8702
538.000000	99.4	171.3435
545.000000	99.4	171.7583
552.000000	99.4	172.1738
560.000000	99.4	172.6487
570.000000	99.3	173.2422
580.000000	99.3	173.8371
590.000000	99.3	174.4364
600.000000	99.3	175.0420
608.000000	99.3	175.5315
615.000000	99.2	175.9634
622.000000	99.2	176.3983
630.000000	99.2	176.8992
640.000000	99.2	177.5318
650.000000	99.2	178.1722
660.000000	99.2	178.8199
670.000000	99.1	179.4742
680.000000	99.1	-179.8646
690.000000	99.1	-179.1964
700.000000	99.1	-178.5219
710.000000	99.1	-177.8424
720.000000	99.1	-177.1590
730.000000	99.1	-176.4727
740.000000	99.1	-175.7839
750.000000	99.1	-175.0944
762.000000	99.1	-174.2706
775.000000	99.1	-173.3905
788.000000	99.2	-172.5307
800.000000	99.2	-171.7522
812.000000	99.2	-170.9621
825.000000	99.2	-170.0340
838.000000	99.2	-169.0034
850.000000	99.3	-168.0226
862.000000	99.3	-167.0895
875.000000	99.4	-166.1591
885.000000	99.5	-165.4906
900.000000	99.5	-164.5430
912.000000	99.6	-163.8241
925.000000	99.7	-163.0863
938.000000	99.8	-162.4000
950.000000	99.9	-161.8201
962.000000	99.9	-161.2908
975.000000	100.0	-160.7531
988.000000	100.1	-160.2123
1000.000000	100.1	-159.6817
1015.000000	100.2	-158.9790
1030.000000	100.3	-158.2748
1044.000000	100.4	-157.6524
1060.000000	100.6	-156.9998
1075.000000	100.7	-156.4430
1090.000000	100.8	-155.9316
1106.000000	100.9	-155.4270
1120.000000	101.0	-155.0143
1138.000000	101.2	-154.5202
1150.000000	101.3	-154.2159
1172.000000	101.4	-153.7226
1180.000000	101.5	-153.5673
1206.000000	101.7	-153.1558
1220.000000	101.8	-152.9875
1241.000000	102.0	-152.7876
1250.000000	102.1	-152.7162
1265.000000	102.2	-152.6092
1280.000000	102.3	-152.5095
1315.000000	102.5	-152.2782
1320.000000	102.5	-152.2471
1340.000000	102.7	-152.1380
1360.000000	102.8	-152.0583
1380.000000	103.0	-152.0060
1400.000000	103.1	-151.9779
1430.000000	103.4	-151.9781
1450.000000	103.5	-152.0063
1475.000000	103.7	-152.0746
1500.000000	103.9	-152.1796
1525.000000	104.0	-152.3129
1550.000000	104.1	-152.4626
1575.000000	104.3	-152.6284
1600.000000	104.4	-152.8182
1625.000000	104.5	-153.0336
1650.000000	104.5	-153.2703
1675.000000	104.6	-153.5271
1700.000000	104.7	-153.8075
1725.000000	104.8	-154.1144
1750.000000	104.9	-154.4483
1775.000000	105.0	-154.8069
1800.000000	105.0	-155.1861
1825.000000	105.1	-155.5815
1850.000000	105.1	-155.9902
1875.000000	105.2	-156.4102
1900.000000	105.2	-156.8391
1925.000000	105.3	-157.2747
1950.000000	105.3	-157.7131
1975.000000	105.4	-158.1504
2000.000000	105.5	-158.5818
2030.000000	105.5	-159.0835
2060.000000	105.6	-159.5570
2090.000000	105.6	-159.9890
2120.000000	105.6	-160.3663
2140.000000	105.6	-160.5804
2180.000000	105.7	-160.8994
2200.000000	105.6	-160.9976
2240.000000	105.6	-161.0638
2270.000000	105.6	-160.9955
2300.000000	105.6	-160.8239
2330.000000	105.6	-160.5576
2360.000000	105.7	-160.2206
2400.000000	105.7	-159.7170
2430.000000	105.8	-159.3327
2470.000000	105.9	-158.8490
2500.000000	106.0	-158.5454
2540.000000	106.2	-158.2981
2580.000000	106.3	-158.2948
2620.000000	106.5	-158.5269
2650.000000	106.6	-158.8105
2690.000000	106.7	-159.2584
2720.000000	106.8	-159.6027
2760.000000	106.8	-160.0390
2800.000000	106.9	-160.4469
2850.000000	107.0	-160.9397
2900.000000	107.1	-161.4104
2950.000000	107.1	-161.8033
3000.000000	107.1	-162.0555
3040.000000	107.1	-162.1386
3070.000000	107.2	-162.1357
3110.000000	107.2	-162.0560
3150.000000	107.2	-161.9047
3200.000000	107.3	-161.6427
3250.000000	107.4	-161.3432
3300.000000	107.5	-161.0617
3350.000000	107.7	-160.8533
3400.000000	107.8	-160.7572
3450.000000	108.0	-160.7870
3500.000000	108.2	-160.9353
3550.000000	108.3	-161.1873
3600.000000	108.5	-161.5298
3650.000000	108.7	-161.9518
3700.000000	108.9	-162.4468
3750.000000	109.1	-163.0172
3820.000000	109.3	-163.9773
3870.000000	109.5	-164.8198
3950.000000	109.8	-166.5286
4000.000000	109.9	-167.8576
4060.000000	110.1	-169.7335
4120.000000	110.2	-171.9078
4180.000000	110.3	-174.3437
4250.000000	110.3	-177.4221
4310.000000	110.2	179.8506
4370.000000	110.1	177.1666
4440.000000	109.8	174.2648
4500.000000	109.5	172.1349
4550.000000	109.2	170.7239
4620.000000	108.6	169.4704
4680.000000	108.2	169.2005
4750.000000	107.6	169.9482
4820.000000	107.0	171.8833
4870.000000	106.7	173.9396
4940.000000	106.5	177.5024
5000.000000	106.5	-179.2411
5080.000000	106.8	-175.5810
5150.000000	107.2	-173.8201
5220.000000	107.6	-173.7015
5300.000000	108.0	-175.2173
5380.000000	108.1	-177.6615
5450.000000	108.0	-179.8568
5520.000000	107.9	178.4017
5600.000000	107.5	177.3697
5700.000000	107.2	177.4589
5800.000000	106.9	177.9492
5900.000000	106.6	178.2610
6000.000000	106.3	178.8912
6080.000000	106.1	179.8730
6150.000000	105.9	-178.9332
6220.000000	105.7	-177.4984
6300.000000	105.6	-175.6491
6400.000000	105.4	-173.1248
6500.000000	105.4	-170.4373
6600.000000	105.4	-167.6384
6700.000000	105.5	-164.7798
6800.000000	105.7	-161.9204
6900.000000	106.0	-159.1266
7000.000000	106.3	-156.4747
7100.000000	106.8	-154.0593
7200.000000	107.4	-152.0033
7300.000000	108.1	-150.4750
7400.000000	108.9	-149.7125
7500.000000	109.7	-150.0482
7620.000000	110.8	-152.4979
7750.000000	111.8	-158.4504
7880.000000	112.4	-168.1297
8000.000000	112.5	-179.5926
8120.000000	112.3	168.4335
8250.000000	111.7	157.5922
8380.000000	110.6	150.6543
8500.000000	109.4	147.6739
8620.000000	108.1	147.2460
8750.000000	106.9	148.7595
8850.000000	106.0	150.8094
9000.000000	105.0	154.6539
9120.000000	104.4	158.0114
9250.000000	104.0	161.6718
9380.000000	103.7	165.2204
9500.000000	103.5	168.3411
9620.000000	103.4	171.2870
9750.000000	103.4	174.2502
9880.000000	103.5	176.9197
10000.000000	103.7	179.0421
10150.000000	104.1	-178.9369
10300.000000	104.5	-177.8791
10440.000000	105.0	-178.0470
10600.000000	105.5	-179.9223
10750.000000	105.9	176.5687
10900.000000	106.1	171.6122
11060.000000	106.0	165.4879
11200.000000	105.7	160.2798
11380.000000	104.9	154.9179
11500.000000	104.2	152.5461
11720.000000	102.9	150.7810
11800.000000	102.4	150.8615
12060.000000	100.9	153.0454
12200.000000	100.2	155.0826
12410.000000	99.3	158.8430
12500.000000	99.0	160.6405
12650.000000	98.5	163.8121
12800.000000	98.1	167.1396
13150.000000	97.6	175.1094
13200.000000	97.5	176.2279
13400.000000	97.5	-179.5105
13600.000000	97.8	-175.8878
13800.000000	98.3	-173.4605
14000.000000	98.9	-172.9606
14300.000000	99.9	-177.4645
14500.000000	100.4	175.4236
14750.000000	100.6	162.3260
15000.000000	100.1	145.5868
15250.000000	99.0	125.3423
15500.000000	97.3	100.3437
15750.000000	94.7	68.7675
16000.000000	91.4	30.2022
16250.000000	88.4	-9.8563
16500.000000	88.1	-43.4121
16750.000000	89.9	-70.4713
17000.000000	91.5	-94.0436
17250.000000	92.2	-113.9570
17500.000000	92.0	-128.7020
17750.000000	91.4	-137.7573
18000.000000	90.4	-141.7147
18250.000000	89.4	-141.8700
18500.000000	88.5	-140.0546
18750.000000	88.0	-138.1844
19000.000000	87.5	-137.4537
19250.000000	86.9	-137.5683
19500.000000	86.0	-137.3026
19750.000000	85.1	-136.1573
