* Measurement data measured by REW V5.20
* Source: Mic in at front panel (Pink) (Realtek(R) Audio), no input selected, L, volume: 0.250
* Format: 256k Log Swept Sine, 1 sweep at -12.0 dBFS with no timing reference
* Dated: Sep 4, 2021 4:08:48 PM
* REW Settings:
*  C-weighting compensation: Off
*  Target level: 75.0 dB
* Note: KZ ZSTX
* Measurement: Sep 4
* Smoothing: 1/12 octave
* Frequency Step: 1/48 octave
* Start Frequency: 20.000 Hz
*
* Freq(Hz)	SPL(dB)	Phase(degrees)
20.000000	103.2	38.2858
20.299999	103.2	37.5872
20.600000	103.2	36.9007
20.900000	103.2	36.2266
21.200001	103.3	35.5656
21.400000	103.3	35.1325
21.799999	103.3	34.2844
22.000000	103.3	33.8690
22.400000	103.3	33.0538
22.700001	103.4	32.4545
23.000000	103.4	31.8640
23.299999	103.4	31.2819
23.600000	103.4	30.7084
24.000000	103.4	29.9583
24.299999	103.4	29.4078
24.700001	103.5	28.6915
25.000000	103.5	28.1677
25.400000	103.5	27.4868
25.799999	103.5	26.8239
26.200001	103.5	26.1759
26.500000	103.5	25.6975
26.900000	103.5	25.0677
27.200001	103.5	24.6008
27.600000	103.5	23.9866
28.000000	103.5	23.3850
28.500000	103.5	22.6559
29.000000	103.5	21.9536
29.500000	103.5	21.2746
30.000000	103.6	20.6135
30.400000	103.6	20.0959
30.700001	103.6	19.7144
31.100000	103.6	19.2145
31.500000	103.6	18.7236
32.000000	103.6	18.1200
32.500000	103.6	17.5249
33.000000	103.6	16.9371
33.500000	103.6	16.3571
34.000000	103.6	15.7856
34.500000	103.6	15.2237
35.000000	103.6	14.6725
35.500000	103.6	14.1337
36.000000	103.6	13.6080
36.500000	103.6	13.0950
37.000000	103.6	12.5926
37.500000	103.6	12.0981
38.200001	103.5	11.4148
38.700001	103.5	10.9327
39.500000	103.5	10.1782
40.000000	103.5	9.7197
40.599998	103.5	9.1813
41.200001	103.5	8.6532
41.799999	103.5	8.1356
42.500000	103.5	7.5472
43.099998	103.5	7.0560
43.700001	103.5	6.5760
44.400002	103.4	6.0302
45.000000	103.4	5.5732
45.500000	103.4	5.1988
46.200001	103.4	4.6837
46.799999	103.4	4.2516
47.500000	103.4	3.7600
48.200001	103.3	3.2807
48.700001	103.3	2.9442
49.400002	103.3	2.4796
50.000000	103.3	2.0870
50.799999	103.3	1.5721
51.500000	103.2	1.1304
52.200001	103.2	0.7013
53.000000	103.2	0.2325
53.799999	103.2	-0.2144
54.500000	103.1	-0.5945
55.200001	103.1	-0.9690
56.000000	103.1	-1.3920
57.000000	103.1	-1.9172
58.000000	103.0	-2.4454
59.000000	103.0	-2.9835
60.000000	103.0	-3.5291
60.799999	102.9	-3.9579
61.500000	102.9	-4.3154
62.200001	102.9	-4.6475
63.000000	102.8	-4.9873
64.000000	102.8	-5.3408
65.000000	102.7	-5.5979
66.000000	102.6	-5.7434
67.000000	102.6	-5.7838
68.000000	102.6	-5.7640
69.000000	102.5	-5.7549
70.000000	102.6	-5.8185
71.000000	102.6	-5.9766
72.000000	102.6	-6.2420
73.000000	102.6	-6.6465
74.000000	102.7	-7.1766
75.000000	102.7	-7.7625
76.199997	102.7	-8.4568
77.500000	102.6	-9.1530
78.800003	102.6	-9.7906
80.000000	102.6	-10.3539
81.199997	102.5	-10.9164
82.500000	102.5	-11.5283
83.800003	102.5	-12.1256
85.000000	102.4	-12.6421
86.199997	102.4	-13.1125
87.500000	102.3	-13.5711
88.500000	102.3	-13.8931
90.000000	102.2	-14.3386
91.199997	102.1	-14.6742
92.500000	102.1	-15.0266
93.800003	102.0	-15.3690
95.000000	102.0	-15.6750
96.199997	101.9	-15.9700
97.500000	101.9	-16.2761
98.800003	101.8	-16.5663
100.000000	101.8	-16.8151
101.500000	101.7	-17.0941
103.000000	101.7	-17.3373
104.400002	101.6	-17.5399
106.000000	101.6	-17.7600
107.500000	101.5	-17.9784
109.000000	101.5	-18.2298
110.599998	101.5	-18.5433
112.000000	101.4	-18.8529
113.800003	101.4	-19.2761
115.000000	101.3	-19.5474
117.199997	101.3	-19.9604
118.000000	101.2	-20.0823
120.599998	101.1	-20.4315
122.000000	101.1	-20.6042
124.099998	101.0	-20.8574
125.000000	101.0	-20.9693
126.500000	100.9	-21.1611
128.000000	100.9	-21.3564
131.500000	100.8	-21.8196
132.000000	100.8	-21.8869
134.000000	100.7	-22.1561
136.000000	100.6	-22.4188
138.000000	100.6	-22.6628
140.000000	100.5	-22.8819
143.000000	100.4	-23.1805
145.000000	100.3	-23.3713
147.500000	100.3	-23.5997
150.000000	100.2	-23.8105
152.500000	100.1	-23.9869
155.000000	100.0	-24.1101
157.500000	99.9	-24.2042
160.000000	99.8	-24.3170
162.500000	99.8	-24.4659
165.000000	99.7	-24.6319
167.500000	99.6	-24.7844
170.000000	99.5	-24.9008
172.500000	99.4	-24.9795
175.000000	99.4	-25.0394
177.500000	99.3	-25.0980
180.000000	99.2	-25.1592
182.500000	99.2	-25.2227
185.000000	99.1	-25.2891
187.500000	99.0	-25.3586
190.000000	99.0	-25.4269
192.500000	98.9	-25.4865
195.000000	98.8	-25.5314
197.500000	98.8	-25.5579
200.000000	98.7	-25.5651
203.000000	98.6	-25.5515
206.000000	98.5	-25.5309
209.000000	98.5	-25.5229
212.000000	98.4	-25.5249
214.000000	98.3	-25.5212
218.000000	98.2	-25.4755
220.000000	98.2	-25.4315
224.000000	98.1	-25.3248
227.000000	98.0	-25.2496
230.000000	98.0	-25.1829
233.000000	97.9	-25.1205
236.000000	97.8	-25.0609
240.000000	97.7	-24.9852
243.000000	97.7	-24.9257
247.000000	97.6	-24.8204
250.000000	97.5	-24.7039
254.000000	97.4	-24.4885
258.000000	97.3	-24.2470
262.000000	97.3	-24.0522
265.000000	97.2	-23.9407
269.000000	97.1	-23.7926
272.000000	97.1	-23.6576
276.000000	97.0	-23.4430
280.000000	96.9	-23.2053
285.000000	96.9	-22.9132
290.000000	96.8	-22.6946
295.000000	96.7	-22.5652
300.000000	96.7	-22.4359
304.000000	96.6	-22.2916
307.000000	96.5	-22.1646
311.000000	96.5	-21.9854
315.000000	96.4	-21.8011
320.000000	96.3	-21.5471
325.000000	96.2	-21.2480
330.000000	96.2	-20.9215
335.000000	96.1	-20.5963
340.000000	96.0	-20.2868
345.000000	95.9	-19.9858
350.000000	95.9	-19.6766
355.000000	95.8	-19.3540
360.000000	95.7	-19.0214
365.000000	95.7	-18.6823
370.000000	95.6	-18.3375
375.000000	95.5	-17.9866
382.000000	95.4	-17.4856
387.000000	95.4	-17.1213
395.000000	95.3	-16.5270
400.000000	95.2	-16.1517
406.000000	95.2	-15.7060
412.000000	95.1	-15.2672
418.000000	95.0	-14.8177
425.000000	95.0	-14.2566
431.000000	94.9	-13.7526
437.000000	94.9	-13.2540
444.000000	94.8	-12.6964
450.000000	94.8	-12.2540
455.000000	94.7	-11.9268
462.000000	94.7	-11.5186
468.000000	94.6	-11.1616
475.000000	94.6	-10.6970
482.000000	94.5	-10.2002
487.000000	94.5	-9.8400
494.000000	94.4	-9.3135
500.000000	94.4	-8.8284
508.000000	94.3	-8.1667
515.000000	94.3	-7.6050
522.000000	94.2	-7.0504
530.000000	94.1	-6.3960
538.000000	94.1	-5.7170
545.000000	94.1	-5.1179
552.000000	94.0	-4.5189
560.000000	94.0	-3.8444
570.000000	93.9	-3.0229
580.000000	93.9	-2.2009
590.000000	93.8	-1.3627
600.000000	93.8	-0.4955
608.000000	93.8	0.2076
615.000000	93.7	0.8195
622.000000	93.7	1.4378
630.000000	93.7	2.1714
640.000000	93.7	3.1215
650.000000	93.7	4.0788
660.000000	93.7	5.0161
670.000000	93.7	5.8762
680.000000	93.7	6.6551
690.000000	93.7	7.4121
700.000000	93.7	8.1937
710.000000	93.7	9.0083
720.000000	93.6	9.8353
730.000000	93.6	10.6646
740.000000	93.7	11.5000
750.000000	93.7	12.3453
762.000000	93.7	13.3730
775.000000	93.7	14.4966
788.000000	93.7	15.6221
800.000000	93.7	16.6668
812.000000	93.8	17.7098
825.000000	93.8	18.7785
838.000000	93.9	19.7308
850.000000	93.9	20.5460
862.000000	94.0	21.3698
875.000000	94.0	22.3131
885.000000	94.1	23.0748
900.000000	94.1	24.2391
912.000000	94.2	25.1697
925.000000	94.3	26.1565
938.000000	94.3	27.0966
950.000000	94.4	27.9136
962.000000	94.5	28.6913
975.000000	94.6	29.5060
988.000000	94.7	30.3012
1000.000000	94.8	31.0266
1015.000000	94.9	31.9413
1030.000000	95.0	32.8494
1044.000000	95.1	33.6337
1060.000000	95.3	34.3999
1075.000000	95.4	35.0208
1090.000000	95.6	35.5999
1106.000000	95.7	36.1920
1120.000000	95.8	36.6927
1138.000000	96.0	37.3233
1150.000000	96.1	37.7414
1172.000000	96.3	38.5166
1180.000000	96.3	38.8028
1206.000000	96.6	39.6802
1220.000000	96.7	40.0602
1241.000000	96.9	40.5067
1250.000000	97.0	40.6711
1265.000000	97.1	40.9272
1280.000000	97.3	41.1700
1315.000000	97.6	41.7154
1320.000000	97.6	41.7893
1340.000000	97.8	42.0722
1360.000000	97.9	42.3525
1380.000000	98.1	42.6627
1400.000000	98.3	43.0233
1430.000000	98.6	43.5533
1450.000000	98.8	43.8013
1475.000000	99.1	44.0038
1500.000000	99.3	44.1442
1525.000000	99.6	44.2630
1550.000000	99.8	44.3851
1575.000000	100.0	44.4916
1600.000000	100.2	44.4833
1625.000000	100.5	44.2993
1650.000000	100.7	43.9774
1675.000000	100.9	43.5637
1700.000000	101.1	43.0697
1725.000000	101.3	42.4883
1750.000000	101.5	41.8384
1775.000000	101.7	41.1568
1800.000000	101.9	40.4323
1825.000000	102.1	39.5904
1850.000000	102.3	38.5873
1875.000000	102.5	37.4370
1900.000000	102.6	36.1754
1925.000000	102.8	34.8398
1950.000000	103.0	33.4450
1975.000000	103.1	31.9592
2000.000000	103.3	30.3416
2030.000000	103.5	28.2365
2060.000000	103.6	26.0167
2090.000000	103.6	23.7433
2120.000000	103.7	21.4697
2140.000000	103.7	19.9940
2180.000000	103.6	17.2341
2200.000000	103.5	15.9515
2240.000000	103.4	13.5505
2270.000000	103.2	11.9226
2300.000000	103.0	10.5061
2330.000000	102.8	9.3477
2360.000000	102.6	8.4388
2400.000000	102.3	7.5536
2430.000000	102.1	7.1393
2470.000000	101.8	6.9709
2500.000000	101.6	7.1438
2540.000000	101.4	7.7345
2580.000000	101.3	8.5347
2620.000000	101.2	9.1726
2650.000000	101.2	9.4025
2690.000000	101.1	9.4308
2720.000000	101.1	9.3652
2760.000000	101.0	9.2859
2800.000000	100.9	9.2418
2850.000000	100.8	9.2167
2900.000000	100.6	9.2376
2950.000000	100.5	9.4304
3000.000000	100.3	9.8810
3040.000000	100.2	10.4137
3070.000000	100.1	10.9155
3110.000000	99.9	11.7301
3150.000000	99.8	12.6819
3200.000000	99.8	13.9702
3250.000000	99.7	15.2873
3300.000000	99.7	16.6132
3350.000000	99.6	17.9733
3400.000000	99.6	19.3425
3450.000000	99.7	20.6835
3500.000000	99.7	22.0294
3550.000000	99.8	23.4061
3600.000000	99.9	24.7814
3650.000000	100.0	26.1216
3700.000000	100.1	27.4402
3750.000000	100.2	28.7798
3820.000000	100.4	30.6896
3870.000000	100.6	32.0666
3950.000000	101.0	34.2770
4000.000000	101.2	35.5678
4060.000000	101.6	36.8876
4120.000000	102.0	37.8924
4180.000000	102.5	38.5484
4250.000000	103.0	38.8195
4310.000000	103.5	38.6144
4370.000000	104.0	37.9506
4440.000000	104.6	36.4487
4500.000000	105.1	34.4579
4550.000000	105.5	32.3130
4620.000000	105.9	28.6571
4680.000000	106.2	25.0776
4750.000000	106.4	20.6134
4820.000000	106.4	15.9890
4870.000000	106.4	12.6405
4940.000000	106.3	7.9820
5000.000000	106.2	4.1199
5080.000000	105.8	-0.6024
5150.000000	105.3	-4.0994
5220.000000	104.8	-6.8826
5300.000000	104.2	-9.1812
5380.000000	103.5	-10.5975
5450.000000	102.9	-11.1536
5520.000000	102.3	-11.0557
5600.000000	101.6	-10.1769
5700.000000	100.9	-8.2474
5800.000000	100.3	-5.8165
5900.000000	99.8	-3.0415
6000.000000	99.3	0.0966
6080.000000	99.1	2.8290
6150.000000	98.9	5.3259
6220.000000	98.7	7.8774
6300.000000	98.6	10.8419
6400.000000	98.5	14.6272
6500.000000	98.5	18.4780
6600.000000	98.6	22.3214
6700.000000	98.8	26.0989
6800.000000	99.1	29.7963
6900.000000	99.5	33.3726
7000.000000	100.0	36.7263
7100.000000	100.6	39.7426
7200.000000	101.3	42.3131
7300.000000	102.2	44.2640
7400.000000	103.3	45.2931
7500.000000	104.4	44.9876
7620.000000	105.9	42.1661
7750.000000	107.3	35.1256
7880.000000	108.3	23.5520
8000.000000	108.6	10.1504
8120.000000	108.2	-3.1876
8250.000000	107.3	-14.7475
8380.000000	105.9	-22.0598
8500.000000	104.5	-25.3356
8620.000000	103.1	-26.1312
8750.000000	101.8	-25.1481
8850.000000	100.9	-23.5331
9000.000000	99.8	-20.2123
9120.000000	99.1	-17.0881
9250.000000	98.6	-13.4468
9380.000000	98.1	-9.6509
9500.000000	97.9	-6.1116
9620.000000	97.8	-2.6292
9750.000000	97.8	1.0128
9880.000000	97.9	4.4316
10000.000000	98.2	7.2775
10150.000000	98.7	10.2530
10300.000000	99.3	12.3264
10440.000000	100.1	13.0876
10600.000000	101.0	12.0562
10750.000000	101.9	8.7247
10900.000000	102.6	2.7745
11060.000000	103.1	-6.1846
11200.000000	103.1	-15.3635
11380.000000	102.7	-27.0909
11500.000000	102.1	-33.8723
11720.000000	100.6	-43.0702
11800.000000	100.0	-45.4078
12060.000000	97.9	-50.3711
12200.000000	96.8	-52.0640
12410.000000	95.2	-54.1519
12500.000000	94.5	-54.9697
12650.000000	93.4	-56.1410
12800.000000	92.1	-56.7306
13150.000000	88.6	-52.0827
13200.000000	88.0	-50.3019
13400.000000	85.6	-39.5336
13600.000000	83.3	-23.1649
13800.000000	81.8	-3.3827
14000.000000	81.7	16.3394
14300.000000	83.5	40.3757
14500.000000	85.4	51.7623
14750.000000	88.0	61.2072
15000.000000	90.7	65.3139
15250.000000	93.2	62.9588
15500.000000	95.2	52.9803
15750.000000	96.3	36.6309
16000.000000	96.6	18.2683
16250.000000	96.2	1.5466
16500.000000	95.7	-14.0082
16750.000000	95.0	-30.8992
17000.000000	93.9	-48.7893
17250.000000	92.1	-63.0613
17500.000000	89.4	-69.4177
17750.000000	86.2	-68.1755
18000.000000	82.9	-62.8049
18250.000000	79.8	-56.1532
18500.000000	77.2	-49.4691
18750.000000	75.0	-43.2340
19000.000000	73.1	-36.9131
19250.000000	71.2	-29.7042
19500.000000	69.5	-21.8806
19750.000000	68.1	-14.8680
