* Measurement data measured by REW V5.20.11
* Source: Mic in at front panel (Pink) (Realtek(R) Audio), MICROPHONE (Master Volume), L, volume: 0.250
* Format: 256k Log Swept Sine, 1 sweep at -12.0 dBFS with no timing reference
* Dated: Aug 29, 2022 11:41:10 PM
* REW Settings:
*  C-weighting compensation: Off
*  Target level: 75.0 dB
* Note: D13 Silver R
* Measurement: D13 Silver R
* Smoothing: 1/12 octave
* Frequency Step: 1/48 octave
* Start Frequency: 20.000 Hz
*
* Freq(Hz)	SPL(dB)	Phase(degrees)
20.000000	111.498	-157.8414
20.299999	111.501	-158.4579
20.600000	111.504	-159.0641
20.900000	111.507	-159.6607
21.200001	111.509	-160.2466
21.400000	111.510	-160.6306
21.799999	111.511	-161.3828
22.000000	111.512	-161.7510
22.400000	111.512	-162.4731
22.700001	111.512	-163.0025
23.000000	111.512	-163.5218
23.299999	111.512	-164.0306
23.600000	111.511	-164.5291
24.000000	111.509	-165.1787
24.299999	111.508	-165.6558
24.700001	111.506	-166.2796
25.000000	111.503	-166.7379
25.400000	111.499	-167.3345
25.799999	111.495	-167.9135
26.200001	111.491	-168.4768
26.500000	111.488	-168.8925
26.900000	111.484	-169.4421
27.200001	111.481	-169.8515
27.600000	111.474	-170.3903
28.000000	111.465	-170.9123
28.500000	111.453	-171.5300
29.000000	111.442	-172.1115
29.500000	111.434	-172.6754
30.000000	111.429	-173.2422
30.400000	111.425	-173.7017
30.700001	111.421	-174.0474
31.100000	111.415	-174.5045
31.500000	111.407	-174.9539
32.000000	111.397	-175.5037
32.500000	111.387	-176.0436
33.000000	111.376	-176.5761
33.500000	111.363	-177.1006
34.000000	111.350	-177.6160
34.500000	111.336	-178.1214
35.000000	111.321	-178.6169
35.500000	111.304	-179.1017
36.000000	111.287	-179.5749
36.500000	111.269	179.9639
37.000000	111.250	179.5140
37.500000	111.231	179.0740
38.200001	111.203	178.4732
38.700001	111.182	178.0550
39.500000	111.147	177.4060
40.000000	111.124	177.0133
40.599998	111.097	176.5552
41.200001	111.069	176.1109
41.799999	111.042	175.6776
42.500000	111.009	175.1816
43.099998	110.981	174.7638
43.700001	110.952	174.3551
44.400002	110.916	173.8920
45.000000	110.886	173.5068
45.500000	110.859	173.1935
46.200001	110.822	172.7657
46.799999	110.790	172.4080
47.500000	110.750	172.0006
48.200001	110.710	171.6056
48.700001	110.681	171.3318
49.400002	110.639	170.9597
50.000000	110.603	170.6507
50.799999	110.553	170.2542
51.500000	110.509	169.9249
52.200001	110.464	169.6150
53.000000	110.413	169.2880
53.799999	110.363	168.9947
54.500000	110.321	168.7686
55.200001	110.281	168.5706
56.000000	110.242	168.3716
57.000000	110.202	168.1357
58.000000	110.173	167.8784
59.000000	110.149	167.5760
60.000000	110.127	167.2175
60.799999	110.106	166.8979
61.500000	110.085	166.6058
62.200001	110.061	166.3099
63.000000	110.031	165.9734
64.000000	109.990	165.5634
65.000000	109.946	165.1694
66.000000	109.901	164.7925
67.000000	109.855	164.4324
68.000000	109.809	164.0868
69.000000	109.763	163.7527
70.000000	109.717	163.4282
71.000000	109.670	163.1136
72.000000	109.624	162.8091
73.000000	109.578	162.5131
74.000000	109.533	162.2231
75.000000	109.487	161.9393
76.199997	109.433	161.6085
77.500000	109.375	161.2588
78.800003	109.319	160.9081
80.000000	109.268	160.5735
81.199997	109.215	160.2231
82.500000	109.154	159.8308
83.800003	109.086	159.4447
85.000000	109.019	159.1149
86.199997	108.948	158.8251
87.500000	108.870	158.5593
88.500000	108.811	158.3834
90.000000	108.727	158.1507
91.199997	108.662	157.9802
92.500000	108.593	157.8038
93.800003	108.526	157.6353
95.000000	108.464	157.4888
96.199997	108.403	157.3517
97.500000	108.338	157.2126
98.800003	108.274	157.0830
100.000000	108.215	156.9741
101.500000	108.143	156.8562
103.000000	108.076	156.7566
104.400002	108.016	156.6697
106.000000	107.950	156.5622
107.500000	107.889	156.4436
109.000000	107.828	156.3028
110.599998	107.762	156.1306
112.000000	107.703	155.9733
113.800003	107.621	155.7939
115.000000	107.560	155.7099
117.199997	107.438	155.6685
118.000000	107.394	155.6866
120.599998	107.266	155.7411
122.000000	107.208	155.7082
124.099998	107.123	155.6216
125.000000	107.088	155.5931
126.500000	107.029	155.5675
128.000000	106.970	155.5635
131.500000	106.823	155.5766
132.000000	106.801	155.5787
134.000000	106.714	155.5970
136.000000	106.622	155.6486
138.000000	106.528	155.7504
140.000000	106.432	155.9064
143.000000	106.297	156.2660
145.000000	106.221	156.6313
147.500000	106.155	157.2181
150.000000	106.125	157.8145
152.500000	106.124	158.2533
155.000000	106.133	158.4467
157.500000	106.134	158.4103
160.000000	106.114	158.2233
162.500000	106.071	157.9876
165.000000	106.010	157.7788
167.500000	105.935	157.6387
170.000000	105.855	157.5844
172.500000	105.775	157.6067
175.000000	105.700	157.6762
177.500000	105.631	157.7654
180.000000	105.565	157.8629
182.500000	105.500	157.9658
185.000000	105.438	158.0724
187.500000	105.375	158.1811
190.000000	105.313	158.2943
192.500000	105.251	158.4164
195.000000	105.188	158.5502
197.500000	105.126	158.6982
200.000000	105.066	158.8636
203.000000	104.997	159.0816
206.000000	104.934	159.2992
209.000000	104.873	159.4932
212.000000	104.811	159.6691
214.000000	104.767	159.7913
218.000000	104.677	160.0867
220.000000	104.634	160.2613
224.000000	104.556	160.6247
227.000000	104.503	160.8826
230.000000	104.452	161.1253
233.000000	104.402	161.3597
236.000000	104.352	161.5887
240.000000	104.286	161.8844
243.000000	104.235	162.1043
247.000000	104.163	162.4190
250.000000	104.108	162.6893
254.000000	104.040	163.1036
258.000000	103.984	163.5377
262.000000	103.937	163.9214
265.000000	103.902	164.1717
269.000000	103.850	164.5002
272.000000	103.809	164.7671
276.000000	103.758	165.1536
280.000000	103.713	165.5580
285.000000	103.669	166.0496
290.000000	103.633	166.4595
295.000000	103.592	166.7753
300.000000	103.539	167.0848
304.000000	103.493	167.3665
307.000000	103.459	167.5933
311.000000	103.415	167.9025
315.000000	103.371	168.2131
320.000000	103.316	168.6193
325.000000	103.262	169.0632
330.000000	103.214	169.5276
335.000000	103.172	169.9840
340.000000	103.132	170.4187
345.000000	103.092	170.8400
350.000000	103.052	171.2646
355.000000	103.013	171.6975
360.000000	102.976	172.1346
365.000000	102.941	172.5723
370.000000	102.907	173.0106
375.000000	102.874	173.4506
382.000000	102.831	174.0688
387.000000	102.802	174.5104
395.000000	102.759	175.2169
400.000000	102.735	175.6567
406.000000	102.708	176.1754
412.000000	102.681	176.6823
418.000000	102.654	177.1937
425.000000	102.624	177.8194
431.000000	102.604	178.3726
437.000000	102.590	178.9158
444.000000	102.580	179.5201
450.000000	102.577	179.9977
455.000000	102.574	-179.6492
462.000000	102.563	-179.2096
468.000000	102.545	-178.8305
475.000000	102.520	-178.3457
482.000000	102.497	-177.8344
487.000000	102.481	-177.4672
494.000000	102.457	-176.9356
500.000000	102.438	-176.4504
508.000000	102.421	-175.7932
515.000000	102.409	-175.2392
522.000000	102.396	-174.6960
530.000000	102.381	-174.0590
538.000000	102.369	-173.4030
545.000000	102.363	-172.8291
552.000000	102.359	-172.2590
560.000000	102.358	-171.6218
570.000000	102.358	-170.8548
580.000000	102.356	-170.0939
590.000000	102.355	-169.3206
600.000000	102.355	-168.5245
608.000000	102.359	-167.8834
615.000000	102.364	-167.3294
622.000000	102.369	-166.7713
630.000000	102.376	-166.1088
640.000000	102.391	-165.2513
650.000000	102.417	-164.3911
660.000000	102.455	-163.5560
670.000000	102.501	-162.8028
680.000000	102.544	-162.1351
690.000000	102.578	-161.4937
700.000000	102.607	-160.8323
710.000000	102.638	-160.1417
720.000000	102.671	-159.4413
730.000000	102.707	-158.7411
740.000000	102.745	-158.0377
750.000000	102.786	-157.3287
762.000000	102.840	-156.4721
775.000000	102.904	-155.5455
788.000000	102.975	-154.6288
800.000000	103.047	-153.7807
812.000000	103.129	-152.9317
825.000000	103.234	-152.0705
838.000000	103.346	-151.3335
850.000000	103.444	-150.7419
862.000000	103.537	-150.1841
875.000000	103.635	-149.5902
885.000000	103.712	-149.1393
900.000000	103.831	-148.4912
912.000000	103.932	-148.0075
925.000000	104.049	-147.5544
938.000000	104.169	-147.2412
950.000000	104.272	-147.1284
962.000000	104.350	-147.1847
975.000000	104.382	-147.3265
988.000000	104.350	-147.2825
1000.000000	104.285	-146.7882
1015.000000	104.235	-145.4410
1030.000000	104.296	-143.7030
1044.000000	104.446	-142.2508
1060.000000	104.663	-141.0670
1075.000000	104.864	-140.3399
1090.000000	105.049	-139.8205
1106.000000	105.231	-139.3845
1120.000000	105.380	-139.0567
1138.000000	105.561	-138.6703
1150.000000	105.678	-138.4220
1172.000000	105.888	-137.9655
1180.000000	105.966	-137.7964
1206.000000	106.230	-137.3000
1220.000000	106.377	-137.1228
1241.000000	106.588	-136.9719
1250.000000	106.674	-136.9306
1265.000000	106.814	-136.8764
1280.000000	106.950	-136.8352
1315.000000	107.259	-136.7864
1320.000000	107.302	-136.7877
1340.000000	107.472	-136.8152
1360.000000	107.635	-136.8571
1380.000000	107.792	-136.8765
1400.000000	107.953	-136.8504
1430.000000	108.216	-136.8277
1450.000000	108.400	-136.9219
1475.000000	108.623	-137.1547
1500.000000	108.838	-137.4614
1525.000000	109.048	-137.8026
1550.000000	109.257	-138.1536
1575.000000	109.476	-138.5320
1600.000000	109.705	-139.0325
1625.000000	109.930	-139.7102
1650.000000	110.142	-140.5223
1675.000000	110.341	-141.4199
1700.000000	110.530	-142.3896
1725.000000	110.707	-143.4385
1750.000000	110.870	-144.5475
1775.000000	111.022	-145.6768
1800.000000	111.170	-146.8302
1825.000000	111.315	-148.0730
1850.000000	111.447	-149.4402
1875.000000	111.558	-150.9079
1900.000000	111.645	-152.4277
1925.000000	111.709	-153.9505
1950.000000	111.757	-155.4523
1975.000000	111.795	-156.9578
2000.000000	111.822	-158.5068
2030.000000	111.829	-160.4253
2060.000000	111.805	-162.3593
2090.000000	111.747	-164.2400
2120.000000	111.652	-165.9858
2140.000000	111.570	-167.0217
2180.000000	111.378	-168.6889
2200.000000	111.279	-169.3393
2240.000000	111.088	-170.3965
2270.000000	110.947	-171.0114
2300.000000	110.810	-171.4438
2330.000000	110.689	-171.6738
2360.000000	110.600	-171.7726
2400.000000	110.535	-171.9444
2430.000000	110.511	-172.2311
2470.000000	110.484	-172.8533
2500.000000	110.455	-173.4593
2540.000000	110.393	-174.3591
2580.000000	110.307	-175.2847
2620.000000	110.195	-176.2083
2650.000000	110.091	-176.8588
2690.000000	109.924	-177.5650
2720.000000	109.788	-177.9154
2760.000000	109.610	-178.1483
2800.000000	109.446	-178.1889
2850.000000	109.267	-178.0790
2900.000000	109.115	-177.8897
2950.000000	108.985	-177.6683
3000.000000	108.873	-177.4722
3040.000000	108.787	-177.3649
3070.000000	108.719	-177.2879
3110.000000	108.624	-177.1376
3150.000000	108.533	-176.9191
3200.000000	108.427	-176.5937
3250.000000	108.327	-176.2414
3300.000000	108.227	-175.8252
3350.000000	108.134	-175.2731
3400.000000	108.062	-174.6114
3450.000000	108.016	-173.9334
3500.000000	107.988	-173.2764
3550.000000	107.980	-172.6534
3600.000000	107.987	-172.0930
3650.000000	108.004	-171.6082
3700.000000	108.027	-171.1770
3750.000000	108.060	-170.7727
3820.000000	108.128	-170.3072
3870.000000	108.187	-170.0838
3950.000000	108.298	-169.9076
4000.000000	108.379	-169.9521
4060.000000	108.476	-170.2192
4120.000000	108.563	-170.7031
4180.000000	108.633	-171.3596
4250.000000	108.689	-172.3066
4310.000000	108.713	-173.2132
4370.000000	108.719	-174.1859
4440.000000	108.701	-175.4450
4500.000000	108.656	-176.6295
4550.000000	108.592	-177.6505
4620.000000	108.459	-179.0590
4680.000000	108.303	179.8444
4750.000000	108.086	178.7913
4820.000000	107.847	177.9772
4870.000000	107.669	177.5103
4940.000000	107.407	176.9932
5000.000000	107.169	176.6693
5080.000000	106.826	176.4478
5150.000000	106.500	176.5263
5220.000000	106.154	176.9238
5300.000000	105.735	177.9224
5380.000000	105.320	179.7538
5450.000000	105.027	-177.9714
5520.000000	104.852	-175.4455
5600.000000	104.787	-172.8116
5700.000000	104.802	-170.2706
5800.000000	104.824	-168.3510
5900.000000	104.823	-166.6335
6000.000000	104.818	-164.8614
6080.000000	104.831	-163.3933
6150.000000	104.860	-162.1149
6220.000000	104.903	-160.8771
6300.000000	104.965	-159.5179
6400.000000	105.058	-157.8686
6500.000000	105.174	-156.2588
6600.000000	105.314	-154.7107
6700.000000	105.473	-153.2234
6800.000000	105.652	-151.7444
6900.000000	105.864	-150.2447
7000.000000	106.119	-148.7557
7100.000000	106.424	-147.3198
7200.000000	106.788	-145.9574
7300.000000	107.227	-144.7181
7400.000000	107.753	-143.7200
7500.000000	108.370	-143.1201
7620.000000	109.223	-143.1839
7750.000000	110.234	-144.7608
7880.000000	111.193	-148.7836
8000.000000	111.878	-155.3763
8120.000000	112.287	-164.9808
8250.000000	112.404	-178.0958
8380.000000	112.184	168.0640
8500.000000	111.655	157.0388
8620.000000	110.793	149.1444
8750.000000	109.546	144.2269
8850.000000	108.466	142.5588
9000.000000	106.840	142.5612
9120.000000	105.649	144.0247
9250.000000	104.528	146.5211
9380.000000	103.592	149.6358
9500.000000	102.886	152.8577
9620.000000	102.322	156.2818
9750.000000	101.864	160.1300
9880.000000	101.567	164.0109
10000.000000	101.439	167.4871
10150.000000	101.479	171.5067
10300.000000	101.750	174.9131
10440.000000	102.212	177.1837
10600.000000	102.956	178.1183
10750.000000	103.779	176.6116
10900.000000	104.566	171.9737
11060.000000	105.142	163.1990
11200.000000	105.249	152.9500
11380.000000	104.692	138.9380
11500.000000	103.892	130.9023
11720.000000	101.746	121.4957
11800.000000	100.825	119.8693
12060.000000	97.687	119.7752
12200.000000	96.058	122.0621
12410.000000	93.843	127.3654
12500.000000	92.995	130.1161
12650.000000	91.719	135.1478
12800.000000	90.615	140.5907
13150.000000	88.693	153.8634
13200.000000	88.490	155.7034
13400.000000	87.816	162.6324
13600.000000	87.277	168.9118
13800.000000	86.801	174.8709
14000.000000	86.379	-179.1719
14300.000000	85.939	-169.9210
14500.000000	85.875	-163.8815
14750.000000	86.088	-157.5944
15000.000000	86.471	-153.8497
15250.000000	86.761	-152.9929
15500.000000	86.743	-153.9741
15750.000000	86.372	-154.7768
16000.000000	85.812	-153.7749
16250.000000	85.414	-151.0703
16500.000000	85.468	-148.9597
16750.000000	85.806	-150.6112
17000.000000	85.896	-157.1351
17250.000000	85.313	-165.8054
17500.000000	83.955	-171.9922
17750.000000	81.996	-172.8773
18000.000000	79.747	-168.6526
18250.000000	77.541	-161.0846
18500.000000	75.644	-151.9701
18750.000000	74.170	-142.4883
19000.000000	73.078	-133.1886
19250.000000	72.266	-124.2241
19500.000000	71.649	-115.6173
19750.000000	71.174	-107.4409
20000.000000	70.801	-99.8871
