* Measurement data measured by REW V5.19
* Source: Mic in at front panel (Pink) (Realtek(R) Audio), no input selected, L, volume: no control
* Format: 256k Log Swept Sine, 1 sweep at -12.0 dBFS  With no timing reference
* Dated: Jun 27, 2021 3:35:52 PM
* REW Settings:
*  C-weighting compensation: Off
*  Target level: 75.0 dB
* Note: PI Audio DR2
* Measurement: Jun 27 15:35:52
* Smoothing: None
* Frequency Step: 1/48 octave
* Start Frequency: 20.3 Hz
*
* Freq(Hz)	SPL(dB)	Phase(degrees)
20.291	80.990	-6.120
20.586	80.959	-6.534
20.885	80.930	-6.870
21.189	80.881	-7.211
21.497	80.835	-7.583
21.810	80.803	-7.993
22.127	80.768	-8.436
22.449	80.723	-8.901
22.776	80.683	-9.383
23.107	80.653	-9.891
23.443	80.620	-10.442
23.784	80.589	-11.047
24.130	80.559	-11.688
24.481	80.527	-12.332
24.837	80.486	-12.942
25.198	80.434	-13.501
25.565	80.394	-14.025
25.937	80.369	-14.541
26.314	80.342	-15.066
26.697	80.319	-15.588
27.085	80.283	-16.077
27.479	80.230	-16.515
27.879	80.194	-16.916
28.284	80.152	-17.319
28.696	80.115	-17.751
29.113	80.084	-18.210
29.537	80.035	-18.666
29.966	79.980	-19.099
30.402	79.922	-19.523
30.844	79.873	-19.964
31.293	79.836	-20.443
31.748	79.790	-20.947
32.210	79.737	-21.456
32.678	79.663	-21.960
33.154	79.607	-22.467
33.636	79.566	-22.988
34.125	79.515	-23.512
34.621	79.467	-24.017
35.125	79.420	-24.487
35.636	79.378	-24.942
36.154	79.348	-25.416
36.680	79.315	-25.914
37.214	79.268	-26.392
37.755	79.200	-26.797
38.304	79.128	-27.145
38.861	79.067	-27.511
39.427	78.985	-27.934
40.000	78.897	-28.381
40.582	78.841	-28.822
41.172	78.786	-29.286
41.771	78.720	-29.789
42.379	78.649	-30.288
42.995	78.587	-30.728
43.620	78.534	-31.113
44.255	78.476	-31.477
44.898	78.413	-31.852
45.552	78.343	-32.260
46.214	78.267	-32.650
46.886	78.183	-32.925
47.568	78.111	-33.130
48.260	78.055	-33.470
48.962	77.971	-33.974
49.674	77.855	-34.438
50.397	77.762	-34.751
51.130	77.701	-35.011
51.874	77.654	-35.325
52.628	77.594	-35.692
53.394	77.502	-36.026
54.170	77.416	-36.280
54.958	77.347	-36.512
55.758	77.273	-36.687
56.569	77.219	-36.847
57.391	77.169	-37.246
58.226	77.071	-37.703
59.073	76.968	-37.940
59.932	76.899	-38.081
60.804	76.853	-38.285
61.688	76.792	-38.778
62.586	76.691	-39.071
63.496	76.659	-39.119
64.420	76.621	-39.674
65.357	76.518	-39.991
66.307	76.450	-40.304
67.272	76.361	-40.653
68.250	76.310	-40.853
69.243	76.254	-41.199
70.250	76.207	-41.642
71.272	76.080	-42.090
72.309	76.021	-42.165
73.360	75.920	-43.048
74.427	75.792	-43.493
75.510	75.533	-44.234
76.608	75.369	-42.688
77.723	75.453	-43.383
78.853	75.312	-42.953
80.000	75.525	-43.421
81.164	75.391	-44.954
82.344	75.267	-44.814
83.542	75.155	-45.465
84.757	74.895	-44.437
85.990	75.100	-44.274
87.241	74.880	-46.037
88.510	74.752	-46.128
89.797	74.594	-46.504
91.103	74.555	-46.965
92.428	74.438	-47.108
93.773	74.371	-47.390
95.137	74.279	-47.252
96.520	74.202	-47.668
97.924	74.075	-47.698
99.349	73.972	-48.049
100.794	73.843	-48.092
102.260	73.726	-48.159
103.747	73.645	-48.218
105.256	73.572	-48.305
106.787	73.379	-48.823
108.340	73.340	-48.561
109.916	73.262	-48.911
111.515	73.197	-49.150
113.137	73.068	-49.076
114.783	72.912	-49.294
116.452	72.826	-49.818
118.146	72.683	-49.787
119.865	72.107	-53.991
121.608	72.404	-48.993
123.377	72.367	-49.669
125.171	72.331	-49.881
126.992	72.266	-49.709
128.839	72.075	-49.700
130.713	71.985	-50.188
132.615	71.942	-49.129
134.543	71.746	-49.238
136.500	71.956	-50.177
138.486	71.798	-51.505
140.500	71.465	-50.513
142.544	71.479	-50.295
144.617	71.238	-49.876
146.721	71.162	-50.127
148.855	71.087	-50.286
151.020	70.970	-50.600
153.217	70.650	-47.174
155.445	70.562	-50.230
157.706	70.573	-50.904
160.000	70.725	-54.006
162.327	71.073	-41.491
164.688	70.511	-45.839
167.084	70.092	-48.266
169.514	70.046	-49.422
171.980	69.928	-49.847
174.481	69.796	-48.907
177.019	69.588	-48.317
179.594	69.441	-49.076
182.206	69.478	-48.679
184.856	69.385	-48.141
187.545	69.326	-48.534
190.273	69.337	-48.646
193.041	69.196	-48.241
195.849	69.066	-47.556
198.697	68.956	-48.306
201.587	68.820	-48.207
204.520	68.735	-47.992
207.494	68.682	-47.946
210.512	68.539	-47.882
213.574	68.407	-47.633
216.681	68.285	-47.558
219.833	68.127	-47.386
223.030	68.025	-47.130
226.274	67.938	-46.663
229.565	67.871	-46.163
232.905	67.726	-46.518
236.292	67.628	-46.138
239.729	67.528	-45.962
243.216	67.403	-45.775
246.754	67.280	-45.560
250.343	67.158	-45.381
253.984	67.065	-44.515
257.678	66.909	-44.257
261.426	66.856	-44.110
265.229	66.760	-43.897
269.087	66.631	-43.751
273.001	66.516	-43.411
276.972	66.423	-42.963
281.000	66.281	-42.594
285.088	66.189	-42.173
289.234	66.129	-41.657
293.441	66.065	-41.688
297.710	65.929	-41.504
302.040	65.810	-41.246
306.433	65.700	-40.845
310.890	65.609	-40.498
315.412	65.478	-40.029
320.000	65.345	-39.897
324.655	65.242	-39.525
329.377	65.134	-38.970
334.168	65.042	-38.175
339.028	64.907	-37.925
343.959	64.780	-37.731
348.962	64.660	-37.266
354.038	64.568	-36.771
359.188	64.475	-36.145
364.412	64.339	-35.763
369.713	64.216	-35.242
375.090	64.093	-34.709
380.546	63.979	-34.186
386.081	63.869	-33.572
391.697	63.753	-32.971
397.395	63.636	-32.300
403.175	63.521	-31.708
409.039	63.421	-31.079
414.989	63.288	-30.641
421.025	63.161	-29.997
427.149	63.042	-29.193
433.362	62.948	-28.284
439.665	62.838	-27.768
446.060	62.716	-26.901
452.548	62.612	-26.015
459.131	62.557	-25.632
465.809	62.382	-25.066
472.584	62.250	-24.227
479.458	62.120	-23.306
486.432	62.012	-22.386
493.507	61.829	-21.908
500.686	61.645	-20.576
507.968	61.563	-19.433
515.357	61.442	-18.462
522.853	61.313	-17.383
530.458	61.121	-16.270
538.174	61.022	-14.693
546.002	60.888	-13.603
553.943	60.762	-11.991
562.001	60.653	-10.536
570.175	60.534	-8.975
578.469	60.403	-7.433
586.883	60.199	-5.450
595.419	60.174	-3.821
604.080	60.088	-1.735
612.866	60.041	0.390
621.780	60.008	2.368
630.824	59.886	4.419
640.000	59.957	7.041
649.309	59.939	9.268
658.753	59.959	11.839
668.335	60.112	14.336
678.056	60.234	16.298
687.919	60.362	18.545
697.925	60.492	20.413
708.076	60.648	22.554
718.376	60.862	24.410
728.825	61.072	26.119
739.426	61.293	27.608
750.181	61.517	28.917
761.093	61.740	30.198
772.163	61.963	31.283
783.394	62.188	32.322
794.789	62.399	32.973
806.349	62.574	33.875
818.078	62.796	34.517
829.977	63.011	35.562
842.050	63.234	35.441
854.297	63.367	35.878
866.724	63.559	35.925
879.330	63.626	36.673
892.120	63.791	37.106
905.097	63.890	37.259
918.262	64.037	37.938
931.618	64.132	38.523
945.169	64.285	39.009
958.917	64.381	39.607
972.864	64.482	39.907
987.015	64.612	40.594
1001.371	64.761	40.783
1015.937	64.863	41.709
1030.714	64.944	42.212
1045.706	65.143	43.216
1060.916	65.280	43.509
1076.347	65.414	43.705
1092.003	65.560	44.253
1107.887	65.685	44.639
1124.001	65.844	45.016
1140.350	65.979	45.434
1156.937	66.090	45.991
1173.765	66.238	46.239
1190.838	66.357	46.890
1208.159	66.562	47.872
1225.732	66.722	47.636
1243.561	66.910	47.741
1261.649	67.023	48.339
1280.000	67.162	48.297
1298.618	67.294	48.838
1317.507	67.449	49.435
1336.670	67.603	49.852
1356.113	67.744	50.007
1375.838	67.945	50.258
1395.850	68.051	50.734
1416.153	68.184	51.914
1436.751	68.439	52.148
1457.649	68.652	52.281
1478.851	68.885	52.665
1500.362	69.128	52.937
1522.185	69.386	53.213
1544.326	69.685	53.517
1566.789	69.960	53.812
1589.578	70.346	54.484
1612.699	70.653	54.836
1636.156	70.808	54.445
1659.955	70.850	54.217
1684.099	70.863	54.152
1708.595	70.937	54.076
1733.447	71.083	53.629
1758.661	71.277	53.018
1784.241	71.538	52.430
1810.193	71.892	52.624
1836.523	72.227	51.872
1863.236	72.561	51.033
1890.338	72.881	49.964
1917.833	73.183	48.874
1945.729	73.413	47.501
1974.030	73.719	46.874
2002.743	73.994	45.617
2031.873	74.319	44.323
2061.428	74.627	42.890
2091.412	75.004	40.873
2121.832	75.248	38.344
2152.695	75.412	35.035
2184.007	75.455	32.584
2215.774	75.537	29.923
2248.003	75.569	27.162
2280.701	75.521	24.441
2313.874	75.438	21.878
2347.530	75.289	20.173
2381.676	75.153	18.095
2416.318	75.016	16.470
2451.464	74.851	14.686
2487.122	74.641	13.311
2523.298	74.473	12.013
2560.000	74.173	11.098
2597.236	73.984	10.708
2635.014	73.797	10.307
2673.341	73.625	10.067
2712.226	73.370	9.866
2751.676	73.251	10.156
2791.700	73.109	10.605
2832.306	72.984	10.682
2873.503	72.900	11.440
2915.299	72.820	11.002
2957.703	72.748	11.914
3000.724	72.679	12.664
3044.370	72.652	13.340
3088.652	72.616	13.652
3133.577	72.653	14.554
3179.156	72.757	15.454
3225.398	72.863	16.076
3272.312	73.032	16.686
3319.909	73.136	16.672
3368.198	73.297	17.103
3417.190	73.479	17.507
3466.894	73.663	17.470
3517.321	73.862	17.971
3568.482	74.139	18.393
3620.387	74.469	18.294
3673.046	74.948	17.396
3726.472	75.311	15.961
3780.675	75.707	14.177
3835.666	76.159	11.604
3891.457	76.561	8.692
3948.060	76.984	5.286
4005.486	77.387	0.837
4063.747	77.698	-5.677
4122.855	77.654	-12.205
4182.824	77.378	-18.623
4243.664	76.849	-25.328
4305.390	76.076	-30.336
4368.013	75.202	-34.730
4431.547	74.312	-37.108
4496.005	73.351	-39.443
4561.401	72.385	-40.271
4627.749	71.535	-40.798
4695.061	70.627	-40.585
4763.352	69.777	-39.364
4832.637	69.091	-37.357
4902.929	68.433	-35.594
4974.244	67.864	-33.205
5046.596	67.358	-31.308
5120.000	66.905	-28.827
5194.472	66.414	-25.466
5270.027	66.014	-22.539
5346.682	65.641	-19.076
5424.451	65.346	-16.031
5503.352	65.011	-12.818
5583.399	64.668	-8.685
5664.612	64.425	-5.011
5747.006	64.211	-0.981
5830.598	64.069	2.900
5915.406	63.937	6.554
6001.447	63.948	10.984
6088.740	63.965	15.207
6177.303	64.162	19.242
6267.154	64.408	23.054
6358.312	64.586	26.722
6450.796	64.880	30.241
6544.625	65.260	34.450
6639.818	65.758	38.109
6736.397	66.276	41.501
6834.380	66.965	44.588
6933.789	67.791	47.721
7034.643	68.831	49.854
7136.964	69.967	51.252
7240.773	71.291	50.843
7346.093	72.853	48.433
7452.944	74.631	41.625
7561.350	76.212	29.201
7671.332	76.709	10.460
7782.915	75.831	-7.539
7896.120	73.903	-19.412
8010.971	71.931	-25.192
8127.493	70.052	-25.923
8245.711	68.640	-24.711
8365.647	67.467	-22.008
8487.328	66.465	-18.702
8610.779	65.747	-13.985
8736.026	65.249	-9.215
8863.095	64.936	-4.859
8992.011	64.800	0.430
9122.803	64.912	5.531
9255.497	65.226	9.566
9390.121	65.715	13.947
9526.704	66.562	17.556
9665.273	67.682	18.677
9805.857	69.226	17.242
9948.487	71.042	10.691
10093.191	72.537	-6.508
10240.000	72.081	-29.949
10388.944	69.859	-46.011
10540.055	67.151	-52.777
10693.363	64.805	-53.404
10848.902	62.808	-51.117
11006.703	61.120	-47.074
11166.799	59.909	-40.901
11329.224	58.877	-35.122
11494.012	57.935	-28.404
11661.195	57.365	-21.740
11830.812	56.959	-15.101
12002.895	56.790	-7.780
12177.480	56.842	-1.169
12354.606	57.187	5.443
12534.309	57.864	10.896
12716.624	58.794	15.845
12901.592	60.269	17.580
13089.250	62.003	14.468
13279.637	63.902	1.965
13472.794	64.076	-20.832
13668.760	61.861	-38.925
13867.577	58.890	-45.807
14069.285	56.255	-45.403
14273.928	54.313	-41.581
14481.547	52.785	-35.419
14692.186	51.917	-29.417
14905.889	51.311	-21.614
15122.700	51.073	-15.019
15342.664	51.207	-8.200
15565.829	51.647	-2.842
15792.239	52.423	-0.985
16021.942	53.509	-6.828
16254.986	54.199	-26.739
16491.422	51.860	-52.729
16731.295	48.097	-63.551
16974.656	44.418	-63.230
17221.559	40.900	-58.039
17472.053	37.385	-48.751
17726.189	30.947	-25.092
17984.021	38.009	73.118
18245.605	45.069	18.356
18510.994	42.869	1.428
18780.242	42.075	-1.916
19053.408	41.771	-11.623
19330.547	39.822	-30.482
19611.715	35.247	-40.500
19896.975	30.247	-35.517
