* Measurement data measured by REW V5.20.13
* Source: EXCL: Mic in at front panel (Pink) (Realtek(R) Audio), MICROPHONE (Master Volume), L, volume: 0.250
* Format: 256k Log Swept Sine, 1 sweep at -12.0 dBFS with no timing reference
* Dated: Nov 28, 2022 12:23:02 AM
* REW Settings:
*  C-weighting compensation: Off
*  Target level: 75.0 dB
* Note: Raptgo X HBB Hook X L
* Measurement: KZ EDX Ultra Nov 28
* Smoothing: 1/12 octave
* Frequency Step: 1/48 octave
* Start Frequency: 20.000 Hz
*
* Freq(Hz)	SPL(dB)	Phase(degrees)
20.000000	96.381	-163.5394
20.299999	96.382	-164.1020
20.600000	96.386	-164.6474
20.900000	96.392	-165.1895
21.200001	96.400	-165.7374
21.400000	96.404	-166.1059
21.799999	96.410	-166.8430
22.000000	96.412	-167.2070
22.400000	96.412	-167.9168
22.700001	96.411	-168.4311
23.000000	96.411	-168.9328
23.299999	96.410	-169.4269
23.600000	96.408	-169.9167
24.000000	96.405	-170.5641
24.299999	96.401	-171.0426
24.700001	96.393	-171.6653
25.000000	96.387	-172.1184
25.400000	96.378	-172.7051
25.799999	96.369	-173.2778
26.200001	96.361	-173.8428
26.500000	96.354	-174.2634
26.900000	96.344	-174.8192
27.200001	96.336	-175.2309
27.600000	96.325	-175.7710
28.000000	96.312	-176.3004
28.500000	96.296	-176.9479
29.000000	96.279	-177.5792
29.500000	96.262	-178.1919
30.000000	96.244	-178.7837
30.400000	96.230	-179.2431
30.700001	96.220	-179.5816
31.100000	96.207	179.9721
31.500000	96.194	179.5291
32.000000	96.179	178.9790
32.500000	96.162	178.4348
33.000000	96.144	177.8990
33.500000	96.126	177.3717
34.000000	96.106	176.8528
34.500000	96.085	176.3433
35.000000	96.063	175.8447
35.500000	96.039	175.3574
36.000000	96.015	174.8798
36.500000	95.990	174.4107
37.000000	95.964	173.9504
37.500000	95.937	173.5000
38.200001	95.898	172.8861
38.700001	95.870	172.4592
39.500000	95.824	171.7961
40.000000	95.796	171.3935
40.599998	95.761	170.9198
41.200001	95.727	170.4555
41.799999	95.693	170.0021
42.500000	95.653	169.4880
43.099998	95.619	169.0579
43.700001	95.585	168.6352
44.400002	95.545	168.1528
45.000000	95.509	167.7523
45.500000	95.480	167.4302
46.200001	95.439	166.9961
46.799999	95.405	166.6331
47.500000	95.366	166.2073
48.200001	95.326	165.7755
48.700001	95.296	165.4698
49.400002	95.252	165.0565
50.000000	95.213	164.7181
50.799999	95.161	164.2853
51.500000	95.115	163.9200
52.200001	95.071	163.5607
53.000000	95.019	163.1527
53.799999	94.966	162.7598
54.500000	94.920	162.4386
55.200001	94.877	162.1294
56.000000	94.832	161.7701
57.000000	94.778	161.3033
58.000000	94.724	160.8288
59.000000	94.669	160.3534
60.000000	94.612	159.8824
60.799999	94.563	159.5163
61.500000	94.518	159.2086
62.200001	94.470	158.9163
63.000000	94.414	158.6027
64.000000	94.344	158.2329
65.000000	94.277	157.8702
66.000000	94.211	157.5073
67.000000	94.148	157.1490
68.000000	94.087	156.8054
69.000000	94.031	156.4753
70.000000	93.977	156.1384
71.000000	93.917	155.7956
72.000000	93.846	155.4935
73.000000	93.766	155.2705
74.000000	93.683	155.1320
75.000000	93.603	155.0606
76.199997	93.519	155.0020
77.500000	93.442	154.8915
78.800003	93.373	154.7026
80.000000	93.312	154.4653
81.199997	93.250	154.1958
82.500000	93.177	153.9292
83.800003	93.103	153.7361
85.000000	93.038	153.6305
86.199997	92.981	153.5652
87.500000	92.928	153.4631
88.500000	92.890	153.3224
90.000000	92.833	153.0201
91.199997	92.787	152.6874
92.500000	92.728	152.2673
93.800003	92.653	151.9209
95.000000	92.578	151.7405
96.199997	92.503	151.6678
97.500000	92.422	151.6247
98.800003	92.337	151.5732
100.000000	92.257	151.5379
101.500000	92.170	151.5394
103.000000	92.109	151.5772
104.400002	92.070	151.6228
106.000000	92.033	151.6679
107.500000	91.999	151.6580
109.000000	91.968	151.5331
110.599998	91.940	151.2665
112.000000	91.915	150.9865
113.800003	91.861	150.6975
115.000000	91.791	150.6239
117.199997	91.578	150.8749
118.000000	91.491	151.0807
120.599998	91.312	151.4748
122.000000	91.284	151.1185
124.099998	91.250	150.2346
125.000000	91.231	149.9239
126.500000	91.192	149.5763
128.000000	91.145	149.3687
131.500000	91.027	148.8978
132.000000	91.012	148.8201
134.000000	90.946	148.5812
136.000000	90.862	148.5916
138.000000	90.767	148.7693
140.000000	90.668	148.8648
143.000000	90.536	148.6976
145.000000	90.460	148.5866
147.500000	90.366	148.6339
150.000000	90.254	148.7960
152.500000	90.131	148.9706
155.000000	90.030	149.1334
157.500000	89.966	149.3167
160.000000	89.917	149.5176
162.500000	89.848	149.7559
165.000000	89.763	150.0038
167.500000	89.679	150.1675
170.000000	89.601	150.2551
172.500000	89.530	150.3267
175.000000	89.462	150.4000
177.500000	89.395	150.4625
180.000000	89.325	150.5064
182.500000	89.250	150.5415
185.000000	89.171	150.5887
187.500000	89.090	150.6650
190.000000	89.010	150.7769
192.500000	88.930	150.9241
195.000000	88.850	151.1035
197.500000	88.771	151.3092
200.000000	88.692	151.5396
203.000000	88.600	151.8595
206.000000	88.517	152.2382
209.000000	88.439	152.6814
212.000000	88.365	153.1538
214.000000	88.322	153.4315
218.000000	88.264	153.7670
220.000000	88.245	153.8521
224.000000	88.208	153.9998
227.000000	88.173	154.1187
230.000000	88.133	154.2466
233.000000	88.086	154.3781
236.000000	88.033	154.4993
240.000000	87.954	154.6490
243.000000	87.892	154.7697
247.000000	87.807	154.9696
250.000000	87.742	155.1672
254.000000	87.658	155.5023
258.000000	87.586	155.8715
262.000000	87.523	156.1995
265.000000	87.475	156.4132
269.000000	87.408	156.6995
272.000000	87.356	156.9395
276.000000	87.291	157.2963
280.000000	87.232	157.6796
285.000000	87.170	158.1510
290.000000	87.118	158.5290
295.000000	87.060	158.8074
300.000000	86.990	159.0855
304.000000	86.931	159.3439
307.000000	86.887	159.5539
311.000000	86.831	159.8424
315.000000	86.775	160.1349
320.000000	86.705	160.5220
325.000000	86.636	160.9496
330.000000	86.574	161.3994
335.000000	86.517	161.8427
340.000000	86.464	162.2645
345.000000	86.411	162.6727
350.000000	86.357	163.0844
355.000000	86.305	163.5045
360.000000	86.254	163.9307
365.000000	86.205	164.3621
370.000000	86.157	164.7967
375.000000	86.111	165.2320
382.000000	86.050	165.8404
387.000000	86.008	166.2758
395.000000	85.945	166.9745
400.000000	85.908	167.4102
406.000000	85.867	167.9263
412.000000	85.826	168.4329
418.000000	85.784	168.9453
425.000000	85.738	169.5737
431.000000	85.704	170.1305
437.000000	85.676	170.6776
444.000000	85.650	171.2864
450.000000	85.632	171.7682
455.000000	85.619	172.1254
462.000000	85.593	172.5715
468.000000	85.562	172.9575
475.000000	85.522	173.4517
482.000000	85.484	173.9734
487.000000	85.457	174.3484
494.000000	85.419	174.8913
500.000000	85.387	175.3863
508.000000	85.353	176.0569
515.000000	85.327	176.6241
522.000000	85.300	177.1823
530.000000	85.269	177.8387
538.000000	85.241	178.5152
545.000000	85.221	179.1079
552.000000	85.204	179.6970
560.000000	85.188	-179.6443
570.000000	85.170	-178.8491
580.000000	85.150	-178.0546
590.000000	85.129	-177.2449
600.000000	85.112	-176.4136
608.000000	85.102	-175.7444
615.000000	85.094	-175.1650
622.000000	85.086	-174.5812
630.000000	85.079	-173.8886
640.000000	85.077	-172.9922
650.000000	85.086	-172.0916
660.000000	85.106	-171.2136
670.000000	85.136	-170.4155
680.000000	85.162	-169.7019
690.000000	85.180	-169.0144
700.000000	85.193	-168.3059
710.000000	85.207	-167.5661
720.000000	85.224	-166.8157
730.000000	85.244	-166.0663
740.000000	85.265	-165.3146
750.000000	85.289	-164.5575
762.000000	85.322	-163.6415
775.000000	85.363	-162.6446
788.000000	85.410	-161.6489
800.000000	85.459	-160.7202
812.000000	85.518	-159.7841
825.000000	85.598	-158.8227
838.000000	85.683	-157.9791
850.000000	85.756	-157.2776
862.000000	85.822	-156.5916
875.000000	85.890	-155.8337
885.000000	85.945	-155.2399
900.000000	86.029	-154.3521
912.000000	86.100	-153.6436
925.000000	86.181	-152.8811
938.000000	86.267	-152.1434
950.000000	86.350	-151.4965
962.000000	86.431	-150.8759
975.000000	86.519	-150.2181
988.000000	86.608	-149.5677
1000.000000	86.689	-148.9666
1015.000000	86.796	-148.1985
1030.000000	86.915	-147.4313
1044.000000	87.038	-146.7756
1060.000000	87.181	-146.1526
1075.000000	87.309	-145.6602
1090.000000	87.429	-145.2024
1106.000000	87.551	-144.7305
1120.000000	87.655	-144.3268
1138.000000	87.785	-143.8105
1150.000000	87.871	-143.4631
1172.000000	88.028	-142.8100
1180.000000	88.088	-142.5666
1206.000000	88.295	-141.8240
1220.000000	88.410	-141.5096
1241.000000	88.572	-141.1358
1250.000000	88.636	-140.9887
1265.000000	88.739	-140.7397
1280.000000	88.838	-140.4781
1315.000000	89.063	-139.8151
1320.000000	89.096	-139.7187
1340.000000	89.224	-139.3365
1360.000000	89.348	-138.9438
1380.000000	89.470	-138.5083
1400.000000	89.598	-138.0080
1430.000000	89.817	-137.2391
1450.000000	89.974	-136.8111
1475.000000	90.168	-136.3586
1500.000000	90.358	-135.9393
1525.000000	90.546	-135.5117
1550.000000	90.739	-135.0503
1575.000000	90.948	-134.5732
1600.000000	91.175	-134.1756
1625.000000	91.406	-133.9127
1650.000000	91.632	-133.7420
1675.000000	91.854	-133.6150
1700.000000	92.075	-133.5178
1725.000000	92.295	-133.4562
1750.000000	92.514	-133.4107
1775.000000	92.735	-133.3429
1800.000000	92.970	-133.2617
1825.000000	93.221	-133.2430
1850.000000	93.481	-133.3375
1875.000000	93.742	-133.5430
1900.000000	94.003	-133.8356
1925.000000	94.265	-134.1879
1950.000000	94.533	-134.5922
1975.000000	94.811	-135.0889
2000.000000	95.095	-135.7326
2030.000000	95.432	-136.7183
2060.000000	95.760	-137.9145
2090.000000	96.075	-139.3053
2120.000000	96.373	-140.8771
2140.000000	96.560	-142.0047
2180.000000	96.915	-144.4105
2200.000000	97.086	-145.7124
2240.000000	97.402	-148.5985
2270.000000	97.604	-151.0056
2300.000000	97.765	-153.5602
2330.000000	97.888	-156.1982
2360.000000	97.974	-158.8982
2400.000000	98.026	-162.5968
2430.000000	98.011	-165.3960
2470.000000	97.912	-169.0299
2500.000000	97.780	-171.5860
2540.000000	97.538	-174.6191
2580.000000	97.245	-177.1210
2620.000000	96.926	-179.1180
2650.000000	96.679	179.6893
2690.000000	96.346	178.5168
2720.000000	96.105	177.9506
2760.000000	95.816	177.5217
2800.000000	95.573	177.2941
2850.000000	95.320	177.0947
2900.000000	95.097	176.9415
2950.000000	94.898	176.9193
3000.000000	94.738	176.9769
3040.000000	94.637	176.9502
3070.000000	94.567	176.8613
3110.000000	94.473	176.6829
3150.000000	94.375	176.4747
3200.000000	94.247	176.1979
3250.000000	94.111	175.9180
3300.000000	93.962	175.6671
3350.000000	93.798	175.5115
3400.000000	93.628	175.4790
3450.000000	93.451	175.5844
3500.000000	93.271	175.8904
3550.000000	93.104	176.4161
3600.000000	92.967	177.0826
3650.000000	92.859	177.7820
3700.000000	92.773	178.4535
3750.000000	92.701	179.0890
3820.000000	92.619	179.8870
3870.000000	92.563	-179.6028
3950.000000	92.467	-178.7826
4000.000000	92.406	-178.2380
4060.000000	92.329	-177.5172
4120.000000	92.251	-176.6419
4180.000000	92.191	-175.5724
4250.000000	92.164	-174.1625
4310.000000	92.187	-172.9107
4370.000000	92.255	-171.7346
4440.000000	92.379	-170.6217
4500.000000	92.501	-169.9476
4550.000000	92.601	-169.5578
4620.000000	92.728	-169.1962
4680.000000	92.825	-168.9557
4750.000000	92.943	-168.6837
4820.000000	93.086	-168.5322
4870.000000	93.199	-168.6230
4940.000000	93.348	-169.1649
5000.000000	93.433	-170.0318
5080.000000	93.423	-171.4803
5150.000000	93.281	-172.4745
5220.000000	93.051	-172.6925
5300.000000	92.775	-171.7290
5380.000000	92.603	-169.6865
5450.000000	92.603	-167.4652
5520.000000	92.757	-165.3209
5600.000000	93.077	-163.4978
5700.000000	93.558	-162.6435
5800.000000	93.984	-163.2721
5900.000000	94.275	-164.8096
6000.000000	94.420	-166.5986
6080.000000	94.450	-167.8923
6150.000000	94.431	-168.7905
6220.000000	94.385	-169.4077
6300.000000	94.322	-169.7422
6400.000000	94.264	-169.6670
6500.000000	94.258	-169.2325
6600.000000	94.314	-168.6436
6700.000000	94.426	-168.0300
6800.000000	94.593	-167.4454
6900.000000	94.819	-166.9402
7000.000000	95.109	-166.6068
7100.000000	95.464	-166.5635
7200.000000	95.881	-166.9319
7300.000000	96.352	-167.8587
7400.000000	96.856	-169.5048
7500.000000	97.371	-171.9825
7620.000000	97.977	-176.1716
7750.000000	98.572	177.3905
7880.000000	98.946	168.4952
8000.000000	98.913	158.6863
8120.000000	98.430	149.0369
8250.000000	97.467	140.6503
8380.000000	96.223	135.1752
8500.000000	94.991	132.3792
8620.000000	93.782	131.1510
8750.000000	92.545	131.0916
8850.000000	91.650	131.7870
9000.000000	90.415	133.8566
9120.000000	89.541	136.1633
9250.000000	88.717	139.0289
9380.000000	88.007	142.0543
9500.000000	87.426	144.8864
9620.000000	86.885	147.8235
9750.000000	86.328	151.3461
9880.000000	85.820	155.3855
10000.000000	85.432	159.5586
10150.000000	85.100	165.2466
10300.000000	84.995	171.2301
10440.000000	85.147	176.7324
10600.000000	85.638	-177.6285
10750.000000	86.379	-173.6385
10900.000000	87.293	-171.6508
11060.000000	88.299	-172.4403
11200.000000	89.062	-175.9069
11380.000000	89.694	176.0863
11500.000000	89.823	169.1329
11720.000000	89.353	155.4361
11800.000000	88.949	150.8981
12060.000000	86.858	141.2067
12200.000000	85.358	140.2551
12410.000000	82.945	144.0921
12500.000000	81.957	147.1346
12650.000000	80.490	153.2723
12800.000000	79.318	160.1001
13150.000000	77.726	176.0576
13200.000000	77.604	178.1367
13400.000000	77.246	-174.3582
13600.000000	76.915	-167.6160
13800.000000	76.525	-160.0670
14000.000000	76.296	-150.4593
14300.000000	77.096	-133.5393
14500.000000	78.533	-123.3244
14750.000000	80.884	-114.7761
15000.000000	83.318	-112.8200
15250.000000	85.379	-118.7552
15500.000000	86.662	-132.3926
15750.000000	86.892	-150.0016
16000.000000	86.087	-165.2879
16250.000000	84.639	-174.7749
16500.000000	83.121	179.5645
16750.000000	81.795	174.2706
17000.000000	80.438	168.8356
17250.000000	78.802	165.1061
17500.000000	76.894	164.3128
17750.000000	74.861	166.2729
18000.000000	72.831	170.4861
18250.000000	70.886	176.6592
18500.000000	69.124	-175.6437
18750.000000	67.666	-167.3346
19000.000000	66.563	-159.5424
19250.000000	65.709	-152.9258
19500.000000	64.905	-147.2842
19750.000000	63.988	-141.6841
20000.000000	62.889	-134.9555
