* Measurement data measured by REW V5.20.13
* Source: Mic in at front panel (Pink) (Realtek(R) Audio), MICROPHONE (Master Volume), L, volume: 0.250
* Format: 256k Log Swept Sine, 1 sweep at -12.0 dBFS with no timing reference
* Dated: Sep 27, 2022 5:13:36 PM
* REW Settings:
*  C-weighting compensation: Off
*  Target level: 75.0 dB
* Note: Shortbus Prometheus L
* Measurement: Shortbus Prometheus L
* Smoothing: 1/12 octave
* Frequency Step: 1/48 octave
* Start Frequency: 20.000 Hz
*
* Freq(Hz)	SPL(dB)	Phase(degrees)
20.000000	89.680	-114.2491
20.299999	89.764	-115.0198
20.600000	89.843	-115.7675
20.900000	89.918	-116.4829
21.200001	89.991	-117.1622
21.400000	90.039	-117.5974
21.799999	90.137	-118.4373
22.000000	90.187	-118.8492
22.400000	90.287	-119.6715
22.700001	90.361	-120.2941
23.000000	90.434	-120.9236
23.299999	90.504	-121.5570
23.600000	90.570	-122.1895
24.000000	90.654	-123.0225
24.299999	90.712	-123.6327
24.700001	90.787	-124.4211
25.000000	90.842	-124.9930
25.400000	90.914	-125.7342
25.799999	90.985	-126.4614
26.200001	91.055	-127.1831
26.500000	91.105	-127.7210
26.900000	91.169	-128.4274
27.200001	91.216	-128.9429
27.600000	91.276	-129.6066
28.000000	91.337	-130.2493
28.500000	91.415	-131.0484
29.000000	91.491	-131.8685
29.500000	91.560	-132.7050
30.000000	91.619	-133.5224
30.400000	91.662	-134.1406
30.700001	91.694	-134.5814
31.100000	91.736	-135.1488
31.500000	91.780	-135.7073
32.000000	91.834	-136.4093
32.500000	91.885	-137.1135
33.000000	91.932	-137.8044
33.500000	91.976	-138.4747
34.000000	92.021	-139.1331
34.500000	92.065	-139.7924
35.000000	92.105	-140.4542
35.500000	92.142	-141.1065
36.000000	92.174	-141.7339
36.500000	92.203	-142.3257
37.000000	92.233	-142.8776
37.500000	92.263	-143.3929
38.200001	92.312	-144.0793
38.700001	92.351	-144.5716
39.500000	92.412	-145.3926
40.000000	92.446	-145.9151
40.599998	92.481	-146.5310
41.200001	92.514	-147.1285
41.799999	92.543	-147.7119
42.500000	92.576	-148.3750
43.099998	92.603	-148.9307
43.700001	92.631	-149.4886
44.400002	92.662	-150.1523
45.000000	92.686	-150.7172
45.500000	92.704	-151.1711
46.200001	92.732	-151.7830
46.799999	92.757	-152.3028
47.500000	92.786	-152.9117
48.200001	92.811	-153.5068
48.700001	92.827	-153.9133
49.400002	92.849	-154.4518
50.000000	92.867	-154.8892
50.799999	92.892	-155.4601
51.500000	92.913	-155.9737
52.200001	92.928	-156.4974
53.000000	92.936	-157.0675
53.799999	92.942	-157.5830
54.500000	92.951	-158.0085
55.200001	92.964	-158.4324
56.000000	92.983	-158.9273
57.000000	93.011	-159.5742
58.000000	93.041	-160.2534
59.000000	93.066	-160.9490
60.000000	93.084	-161.6386
60.799999	93.091	-162.1581
61.500000	93.095	-162.5811
62.200001	93.098	-162.9837
63.000000	93.101	-163.4314
64.000000	93.103	-163.9797
65.000000	93.105	-164.5175
66.000000	93.108	-165.0458
67.000000	93.112	-165.5571
68.000000	93.119	-166.0355
69.000000	93.133	-166.4833
70.000000	93.151	-166.9312
71.000000	93.165	-167.3920
72.000000	93.173	-167.8408
73.000000	93.175	-168.2588
74.000000	93.178	-168.6699
75.000000	93.183	-169.1162
76.199997	93.187	-169.7064
77.500000	93.191	-170.3703
78.800003	93.199	-171.0397
80.000000	93.206	-171.6528
81.199997	93.209	-172.2442
82.500000	93.202	-172.8470
83.800003	93.187	-173.4096
85.000000	93.168	-173.9132
86.199997	93.148	-174.4119
87.500000	93.127	-174.9313
88.500000	93.115	-175.3073
90.000000	93.102	-175.8297
91.199997	93.094	-176.2066
92.500000	93.084	-176.5838
93.800003	93.071	-176.9648
95.000000	93.053	-177.3387
96.199997	93.031	-177.7235
97.500000	93.005	-178.1307
98.800003	92.982	-178.5190
100.000000	92.965	-178.8659
101.500000	92.947	-179.2831
103.000000	92.930	-179.6683
104.400002	92.916	-179.9987
106.000000	92.905	179.6335
107.500000	92.896	179.2725
109.000000	92.886	178.8857
110.599998	92.875	178.4359
112.000000	92.867	178.0104
113.800003	92.860	177.4758
115.000000	92.857	177.1896
117.199997	92.861	176.8876
118.000000	92.866	176.8134
120.599998	92.853	176.3682
122.000000	92.808	176.0072
124.099998	92.723	175.4683
125.000000	92.692	175.2460
126.500000	92.656	174.8869
128.000000	92.635	174.5394
131.500000	92.596	173.7146
132.000000	92.589	173.5908
134.000000	92.565	173.0636
136.000000	92.544	172.4844
138.000000	92.514	171.9496
140.000000	92.475	171.5731
143.000000	92.419	171.2170
145.000000	92.384	171.0228
147.500000	92.338	170.7838
150.000000	92.293	170.5021
152.500000	92.256	170.1284
155.000000	92.224	169.7401
157.500000	92.194	169.3831
160.000000	92.159	168.9870
162.500000	92.117	168.5558
165.000000	92.072	168.1342
167.500000	92.022	167.7366
170.000000	91.965	167.3685
172.500000	91.907	167.0387
175.000000	91.854	166.7507
177.500000	91.804	166.4927
180.000000	91.753	166.2485
182.500000	91.703	166.0127
185.000000	91.652	165.7878
187.500000	91.602	165.5835
190.000000	91.551	165.4164
192.500000	91.501	165.3035
195.000000	91.454	165.2468
197.500000	91.415	165.2258
200.000000	91.386	165.2081
203.000000	91.366	165.1604
206.000000	91.356	165.0573
209.000000	91.348	164.8584
212.000000	91.333	164.5538
214.000000	91.317	164.3066
218.000000	91.274	163.7756
220.000000	91.249	163.5303
224.000000	91.201	163.1435
227.000000	91.169	162.9066
230.000000	91.135	162.6661
233.000000	91.099	162.4174
236.000000	91.059	162.1599
240.000000	91.001	161.7953
243.000000	90.951	161.5275
247.000000	90.878	161.2226
250.000000	90.821	161.0428
254.000000	90.750	160.8599
258.000000	90.690	160.7049
262.000000	90.638	160.5210
265.000000	90.597	160.3557
269.000000	90.535	160.1301
272.000000	90.488	159.9816
276.000000	90.425	159.8241
280.000000	90.368	159.7014
285.000000	90.307	159.5510
290.000000	90.256	159.3330
295.000000	90.197	159.0413
300.000000	90.122	158.7600
304.000000	90.056	158.5723
307.000000	90.007	158.4494
311.000000	89.943	158.3000
315.000000	89.879	158.1666
320.000000	89.796	158.0402
325.000000	89.715	157.9620
330.000000	89.639	157.9089
335.000000	89.569	157.8584
340.000000	89.501	157.7969
345.000000	89.431	157.7293
350.000000	89.360	157.6722
355.000000	89.290	157.6325
360.000000	89.220	157.6094
365.000000	89.151	157.6028
370.000000	89.083	157.6093
375.000000	89.016	157.6245
382.000000	88.924	157.6580
387.000000	88.860	157.6903
395.000000	88.760	157.7599
400.000000	88.699	157.8149
406.000000	88.627	157.8856
412.000000	88.555	157.9555
418.000000	88.483	158.0405
425.000000	88.399	158.1833
431.000000	88.333	158.3342
437.000000	88.273	158.4833
444.000000	88.209	158.6404
450.000000	88.158	158.7478
455.000000	88.116	158.8008
462.000000	88.051	158.8306
468.000000	87.985	158.8685
475.000000	87.905	158.9677
482.000000	87.826	159.1049
487.000000	87.770	159.2110
494.000000	87.690	159.3868
500.000000	87.623	159.5771
508.000000	87.541	159.8531
515.000000	87.473	160.0831
522.000000	87.404	160.3121
530.000000	87.325	160.6039
538.000000	87.249	160.9274
545.000000	87.187	161.2198
552.000000	87.128	161.5178
560.000000	87.063	161.8557
570.000000	86.985	162.2634
580.000000	86.904	162.6785
590.000000	86.825	163.1236
600.000000	86.748	163.6133
608.000000	86.690	164.0218
615.000000	86.641	164.3797
622.000000	86.593	164.7480
630.000000	86.538	165.2015
640.000000	86.479	165.8094
650.000000	86.429	166.4326
660.000000	86.392	167.0450
670.000000	86.364	167.5910
680.000000	86.333	168.0646
690.000000	86.294	168.5225
700.000000	86.252	169.0122
710.000000	86.210	169.5449
720.000000	86.173	170.0994
730.000000	86.138	170.6628
740.000000	86.106	171.2390
750.000000	86.077	171.8322
762.000000	86.047	172.5668
775.000000	86.021	173.3834
788.000000	86.003	174.2154
800.000000	85.993	175.0073
812.000000	85.994	175.8185
825.000000	86.013	176.6569
838.000000	86.039	177.3897
850.000000	86.058	177.9986
862.000000	86.072	178.5999
875.000000	86.085	179.2745
885.000000	86.098	179.8111
900.000000	86.123	-179.3742
912.000000	86.147	-178.7154
925.000000	86.180	-178.0006
938.000000	86.220	-177.3044
950.000000	86.261	-176.6909
962.000000	86.304	-176.1007
975.000000	86.351	-175.4749
988.000000	86.400	-174.8563
1000.000000	86.447	-174.2839
1015.000000	86.512	-173.5497
1030.000000	86.591	-172.8152
1044.000000	86.678	-172.1908
1060.000000	86.784	-171.6069
1075.000000	86.876	-171.1545
1090.000000	86.962	-170.7381
1106.000000	87.049	-170.3096
1120.000000	87.121	-169.9402
1138.000000	87.212	-169.4564
1150.000000	87.272	-169.1196
1172.000000	87.387	-168.4558
1180.000000	87.433	-168.1981
1206.000000	87.607	-167.3785
1220.000000	87.715	-167.0204
1241.000000	87.878	-166.6279
1250.000000	87.946	-166.5029
1265.000000	88.057	-166.3381
1280.000000	88.162	-166.2141
1315.000000	88.392	-165.9969
1320.000000	88.423	-165.9710
1340.000000	88.545	-165.8770
1360.000000	88.662	-165.7806
1380.000000	88.775	-165.6532
1400.000000	88.892	-165.4751
1430.000000	89.093	-165.2115
1450.000000	89.236	-165.1301
1475.000000	89.412	-165.1172
1500.000000	89.585	-165.1458
1525.000000	89.758	-165.1783
1550.000000	89.939	-165.1932
1575.000000	90.140	-165.2169
1600.000000	90.365	-165.3577
1625.000000	90.599	-165.6858
1650.000000	90.835	-166.1762
1675.000000	91.074	-166.8021
1700.000000	91.320	-167.5798
1725.000000	91.571	-168.5546
1750.000000	91.824	-169.7578
1775.000000	92.079	-171.2166
1800.000000	92.334	-173.0191
1825.000000	92.574	-175.3192
1850.000000	92.763	-178.2105
1875.000000	92.857	178.3600
1900.000000	92.815	174.6350
1925.000000	92.609	171.0721
1950.000000	92.247	168.2408
1975.000000	91.784	166.5623
2000.000000	91.303	166.0942
2030.000000	90.819	166.6981
2060.000000	90.497	167.8232
2090.000000	90.315	168.8639
2120.000000	90.205	169.6219
2140.000000	90.147	170.0246
2180.000000	90.053	170.8328
2200.000000	90.029	171.2671
2240.000000	90.043	172.0203
2270.000000	90.097	172.2722
2300.000000	90.150	172.1444
2330.000000	90.166	171.7523
2360.000000	90.129	171.3777
2400.000000	90.039	171.3491
2430.000000	90.001	171.7300
2470.000000	90.051	172.3356
2500.000000	90.149	172.4818
2540.000000	90.294	172.0593
2580.000000	90.402	171.0859
2620.000000	90.450	169.7794
2650.000000	90.440	168.7023
2690.000000	90.365	167.3195
2720.000000	90.273	166.4293
2760.000000	90.123	165.4894
2800.000000	89.960	164.7960
2850.000000	89.748	164.2075
2900.000000	89.536	163.8835
2950.000000	89.330	163.8290
3000.000000	89.150	163.9646
3040.000000	89.023	164.1038
3070.000000	88.933	164.2096
3110.000000	88.814	164.3790
3150.000000	88.702	164.5947
3200.000000	88.573	164.8947
3250.000000	88.454	165.1780
3300.000000	88.336	165.4440
3350.000000	88.218	165.7466
3400.000000	88.108	166.0732
3450.000000	88.010	166.3502
3500.000000	87.917	166.5141
3550.000000	87.818	166.4623
3600.000000	87.677	166.1508
3650.000000	87.438	165.8741
3700.000000	87.093	166.2779
3750.000000	86.725	167.8121
3820.000000	86.398	171.2304
3870.000000	86.338	173.6881
3950.000000	86.414	176.7643
4000.000000	86.498	178.1212
4060.000000	86.592	179.3045
4120.000000	86.659	-179.8202
4180.000000	86.699	-179.1611
4250.000000	86.681	-178.6087
4310.000000	86.574	-177.9207
4370.000000	86.419	-176.4444
4440.000000	86.336	-173.5177
4500.000000	86.469	-170.6904
4550.000000	86.704	-168.8073
4620.000000	87.094	-167.3541
4680.000000	87.398	-167.0493
4750.000000	87.679	-167.4312
4820.000000	87.858	-168.3681
4870.000000	87.904	-169.2046
4940.000000	87.846	-170.1714
5000.000000	87.715	-170.4235
5080.000000	87.529	-169.7576
5150.000000	87.435	-168.6239
5220.000000	87.406	-167.4597
5300.000000	87.394	-166.2234
5380.000000	87.385	-164.8599
5450.000000	87.401	-163.4473
5520.000000	87.468	-161.8867
5600.000000	87.624	-160.2074
5700.000000	87.890	-158.7572
5800.000000	88.138	-158.1237
5900.000000	88.302	-157.9814
6000.000000	88.368	-157.8143
6080.000000	88.379	-157.3743
6150.000000	88.391	-156.7436
6220.000000	88.419	-156.0178
6300.000000	88.456	-155.2460
6400.000000	88.451	-154.3425
6500.000000	88.337	-152.8212
6600.000000	88.212	-149.6257
6700.000000	88.339	-144.7201
6800.000000	88.869	-139.5977
6900.000000	89.662	-135.7394
7000.000000	90.541	-133.4312
7100.000000	91.437	-132.3394
7200.000000	92.347	-132.1778
7300.000000	93.280	-132.8472
7400.000000	94.241	-134.4163
7500.000000	95.220	-137.0958
7620.000000	96.362	-142.2784
7750.000000	97.401	-151.0484
7880.000000	97.991	-163.1304
8000.000000	97.952	-175.6776
8120.000000	97.295	173.2218
8250.000000	96.035	165.5579
8380.000000	94.552	162.8745
8500.000000	93.331	163.2407
8620.000000	92.409	164.5660
8750.000000	91.676	166.1460
8850.000000	91.214	167.4945
9000.000000	90.642	170.0649
9120.000000	90.321	172.5460
9250.000000	90.137	175.3187
9380.000000	90.109	177.8563
9500.000000	90.191	179.8549
9620.000000	90.362	-178.4610
9750.000000	90.667	-176.9692
9880.000000	91.129	-176.0889
10000.000000	91.677	-176.4036
10150.000000	92.379	-179.2042
10300.000000	92.875	175.0622
10440.000000	92.984	167.9526
10600.000000	92.636	159.8186
10750.000000	91.952	153.7883
10900.000000	91.076	149.7351
11060.000000	90.062	147.3340
11200.000000	89.173	146.5844
11380.000000	88.094	147.2101
11500.000000	87.461	148.4513
11720.000000	86.620	151.5311
11800.000000	86.436	152.5738
12060.000000	86.188	154.0423
12200.000000	86.132	153.1123
12410.000000	85.894	149.7788
12500.000000	85.694	147.9924
12650.000000	85.222	145.0772
12800.000000	84.617	142.5670
13150.000000	82.997	137.5576
13200.000000	82.753	136.7452
13400.000000	81.679	133.1235
13600.000000	80.283	130.2589
13800.000000	78.411	131.2237
14000.000000	76.142	138.1917
14300.000000	72.877	157.2552
14500.000000	71.552	171.3080
14750.000000	71.044	-173.5287
15000.000000	71.170	-161.9252
15250.000000	71.433	-152.6510
15500.000000	71.797	-144.1545
15750.000000	72.467	-135.8662
16000.000000	73.632	-128.5411
16250.000000	75.212	-124.1578
16500.000000	76.801	-125.2878
16750.000000	77.893	-133.2545
17000.000000	78.132	-145.7954
17250.000000	77.468	-157.8959
17500.000000	76.120	-165.9554
17750.000000	74.401	-169.5607
18000.000000	72.568	-169.8535
18250.000000	70.771	-167.9457
18500.000000	69.067	-164.5225
18750.000000	67.456	-159.8730
19000.000000	65.913	-153.9166
19250.000000	64.422	-146.3573
19500.000000	63.022	-137.0283
19750.000000	61.822	-126.2579
20000.000000	60.940	-114.9280
