* Measurement data measured by REW V5.20.13
* Source: EXCL: Mic in at front panel (Pink) (Realtek(R) Audio), MICROPHONE (Master Volume), L, volume: 0.250
* Format: 256k Log Swept Sine, 1 sweep at -12.0 dBFS with no timing reference
* Dated: Nov 13, 2022 8:52:38 PM
* REW Settings:
*  C-weighting compensation: Off
*  Target level: 75.0 dB
* Note: Shortbus Eru R
* Measurement: KZ EDX Ultra Nov 13
* Smoothing: 1/12 octave
* Frequency Step: 1/48 octave
* Start Frequency: 20.000 Hz
*
* Freq(Hz)	SPL(dB)	Phase(degrees)
20.000000	92.756	-135.2075
20.299999	92.772	-136.1526
20.600000	92.780	-136.9689
20.900000	92.788	-137.6493
21.200001	92.806	-138.2209
21.400000	92.826	-138.5726
21.799999	92.882	-139.2624
22.000000	92.916	-139.6253
22.400000	92.987	-140.4123
22.700001	93.036	-141.0419
23.000000	93.079	-141.6765
23.299999	93.118	-142.2909
23.600000	93.154	-142.8742
24.000000	93.202	-143.6054
24.299999	93.240	-144.1354
24.700001	93.294	-144.8428
25.000000	93.334	-145.3852
25.400000	93.383	-146.1248
25.799999	93.427	-146.8704
26.200001	93.464	-147.6064
26.500000	93.489	-148.1456
26.900000	93.518	-148.8441
27.200001	93.537	-149.3514
27.600000	93.562	-150.0054
28.000000	93.585	-150.6363
28.500000	93.616	-151.4047
29.000000	93.648	-152.1734
29.500000	93.679	-152.9587
30.000000	93.705	-153.7564
30.400000	93.722	-154.3900
30.700001	93.732	-154.8551
31.100000	93.743	-155.4561
31.500000	93.754	-156.0334
32.000000	93.767	-156.7232
32.500000	93.781	-157.3836
33.000000	93.798	-158.0261
33.500000	93.818	-158.6674
34.000000	93.839	-159.3233
34.500000	93.857	-159.9957
35.000000	93.870	-160.6691
35.500000	93.878	-161.3203
36.000000	93.884	-161.9365
36.500000	93.889	-162.5226
37.000000	93.896	-163.0930
37.500000	93.902	-163.6568
38.200001	93.907	-164.4268
38.700001	93.908	-164.9507
39.500000	93.910	-165.7409
40.000000	93.912	-166.2166
40.599998	93.914	-166.7786
41.200001	93.916	-167.3323
41.799999	93.917	-167.8805
42.500000	93.918	-168.5242
43.099998	93.917	-169.0842
43.700001	93.913	-169.6451
44.400002	93.905	-170.2884
45.000000	93.898	-170.8252
45.500000	93.891	-171.2620
46.200001	93.884	-171.8588
46.799999	93.878	-172.3614
47.500000	93.874	-172.9462
48.200001	93.867	-173.5316
48.700001	93.860	-173.9439
49.400002	93.846	-174.4953
50.000000	93.831	-174.9290
50.799999	93.812	-175.4490
51.500000	93.799	-175.8744
52.200001	93.788	-176.3044
53.000000	93.776	-176.8180
53.799999	93.762	-177.3466
54.500000	93.748	-177.8098
55.200001	93.735	-178.2746
56.000000	93.723	-178.8227
57.000000	93.705	-179.5338
58.000000	93.681	179.7781
59.000000	93.657	179.1417
60.000000	93.633	178.5488
60.799999	93.613	178.1044
61.500000	93.596	177.7297
62.200001	93.579	177.3581
63.000000	93.559	176.9310
64.000000	93.531	176.3965
65.000000	93.498	175.8738
66.000000	93.463	175.3803
67.000000	93.429	174.9233
68.000000	93.398	174.4885
69.000000	93.371	174.0529
70.000000	93.342	173.6057
71.000000	93.309	173.1639
72.000000	93.276	172.7365
73.000000	93.243	172.3015
74.000000	93.207	171.8624
75.000000	93.171	171.4456
76.199997	93.131	170.9800
77.500000	93.095	170.4933
78.800003	93.064	169.9919
80.000000	93.035	169.4897
81.199997	93.000	168.9453
82.500000	92.950	168.3398
83.800003	92.889	167.7794
85.000000	92.830	167.3322
86.199997	92.774	166.9268
87.500000	92.713	166.5262
88.500000	92.663	166.2610
90.000000	92.592	165.9274
91.199997	92.542	165.6613
92.500000	92.493	165.3175
93.800003	92.445	164.9415
95.000000	92.402	164.6199
96.199997	92.364	164.3381
97.500000	92.323	164.0735
98.800003	92.277	163.8468
100.000000	92.230	163.6506
101.500000	92.167	163.3633
103.000000	92.106	162.9863
104.400002	92.054	162.5766
106.000000	92.002	162.1253
107.500000	91.956	161.7752
109.000000	91.906	161.4775
110.599998	91.844	161.1420
112.000000	91.788	160.8032
113.800003	91.736	160.4100
115.000000	91.726	160.2916
117.199997	91.769	160.5120
118.000000	91.795	160.6564
120.599998	91.765	160.7626
122.000000	91.622	160.7197
124.099998	91.357	160.7975
125.000000	91.267	160.7851
126.500000	91.157	160.6031
128.000000	91.071	160.3257
131.500000	90.843	160.1325
132.000000	90.808	160.1606
134.000000	90.698	160.2013
136.000000	90.642	159.8565
138.000000	90.608	159.3477
140.000000	90.600	159.1261
143.000000	90.652	159.1443
145.000000	90.684	159.0880
147.500000	90.664	158.9230
150.000000	90.592	158.7851
152.500000	90.520	158.4020
155.000000	90.450	157.7563
157.500000	90.387	157.2593
160.000000	90.336	157.0074
162.500000	90.282	156.8302
165.000000	90.217	156.6169
167.500000	90.144	156.3857
170.000000	90.065	156.2043
172.500000	89.987	156.0880
175.000000	89.913	156.0027
177.500000	89.843	155.9203
180.000000	89.772	155.8350
182.500000	89.701	155.7567
185.000000	89.634	155.6922
187.500000	89.571	155.6256
190.000000	89.509	155.5573
192.500000	89.443	155.5140
195.000000	89.369	155.5147
197.500000	89.293	155.5531
200.000000	89.221	155.5943
203.000000	89.149	155.6006
206.000000	89.085	155.5768
209.000000	89.020	155.5497
212.000000	88.949	155.5157
214.000000	88.896	155.5005
218.000000	88.792	155.5671
220.000000	88.746	155.6608
224.000000	88.668	155.8843
227.000000	88.614	156.0206
230.000000	88.560	156.1203
233.000000	88.508	156.1974
236.000000	88.455	156.2604
240.000000	88.384	156.3260
243.000000	88.328	156.3700
247.000000	88.250	156.4462
250.000000	88.189	156.5358
254.000000	88.110	156.7104
258.000000	88.042	156.9100
262.000000	87.980	157.0693
265.000000	87.933	157.1595
269.000000	87.865	157.2802
272.000000	87.813	157.3911
276.000000	87.747	157.5693
280.000000	87.687	157.7675
285.000000	87.623	158.0153
290.000000	87.569	158.2046
295.000000	87.507	158.3139
300.000000	87.432	158.4216
304.000000	87.370	158.5432
307.000000	87.324	158.6518
311.000000	87.264	158.8080
315.000000	87.204	158.9712
320.000000	87.129	159.1992
325.000000	87.055	159.4705
330.000000	86.987	159.7667
335.000000	86.924	160.0569
340.000000	86.865	160.3298
345.000000	86.806	160.5967
350.000000	86.746	160.8712
355.000000	86.687	161.1556
360.000000	86.629	161.4493
365.000000	86.574	161.7519
370.000000	86.520	162.0616
375.000000	86.468	162.3771
382.000000	86.397	162.8272
387.000000	86.349	163.1530
395.000000	86.277	163.6828
400.000000	86.235	164.0179
406.000000	86.187	164.4151
412.000000	86.141	164.8037
418.000000	86.094	165.1997
425.000000	86.042	165.6911
431.000000	86.004	166.1265
437.000000	85.973	166.5502
444.000000	85.942	167.0145
450.000000	85.920	167.3730
455.000000	85.902	167.6283
462.000000	85.869	167.9349
468.000000	85.833	168.2044
475.000000	85.786	168.5656
482.000000	85.740	168.9572
487.000000	85.708	169.2412
494.000000	85.663	169.6600
500.000000	85.626	170.0529
508.000000	85.584	170.5926
515.000000	85.552	171.0473
522.000000	85.519	171.4935
530.000000	85.480	172.0230
538.000000	85.446	172.5761
545.000000	85.420	173.0644
552.000000	85.397	173.5509
560.000000	85.375	174.0934
570.000000	85.348	174.7441
580.000000	85.321	175.3937
590.000000	85.294	176.0615
600.000000	85.269	176.7563
608.000000	85.254	177.3175
615.000000	85.243	177.8025
622.000000	85.231	178.2929
630.000000	85.219	178.8804
640.000000	85.212	179.6479
650.000000	85.215	-179.5782
660.000000	85.231	-178.8268
670.000000	85.255	-178.1552
680.000000	85.276	-177.5675
690.000000	85.289	-177.0040
700.000000	85.298	-176.4181
710.000000	85.308	-175.8005
720.000000	85.322	-175.1710
730.000000	85.339	-174.5404
740.000000	85.357	-173.9054
750.000000	85.379	-173.2635
762.000000	85.408	-172.4843
775.000000	85.447	-171.6351
788.000000	85.492	-170.7869
800.000000	85.539	-169.9928
812.000000	85.598	-169.1909
825.000000	85.678	-168.3748
838.000000	85.764	-167.6744
850.000000	85.838	-167.1047
862.000000	85.907	-166.5514
875.000000	85.978	-165.9390
885.000000	86.036	-165.4584
900.000000	86.125	-164.7433
912.000000	86.201	-164.1756
925.000000	86.288	-163.5685
938.000000	86.382	-162.9890
950.000000	86.472	-162.4905
962.000000	86.562	-162.0214
975.000000	86.660	-161.5331
988.000000	86.758	-161.0580
1000.000000	86.851	-160.6239
1015.000000	86.972	-160.0711
1030.000000	87.105	-159.5270
1044.000000	87.243	-159.0870
1060.000000	87.404	-158.7208
1075.000000	87.549	-158.4808
1090.000000	87.686	-158.2865
1106.000000	87.828	-158.1073
1120.000000	87.950	-157.9695
1138.000000	88.103	-157.8082
1150.000000	88.205	-157.7064
1172.000000	88.394	-157.5238
1180.000000	88.464	-157.4581
1206.000000	88.710	-157.3173
1220.000000	88.846	-157.3434
1241.000000	89.041	-157.5047
1250.000000	89.120	-157.5966
1265.000000	89.248	-157.7594
1280.000000	89.372	-157.9272
1315.000000	89.663	-158.3455
1320.000000	89.705	-158.4139
1340.000000	89.873	-158.7213
1360.000000	90.041	-159.0747
1380.000000	90.209	-159.4557
1400.000000	90.385	-159.8618
1430.000000	90.675	-160.6716
1450.000000	90.873	-161.4787
1475.000000	91.099	-162.8114
1500.000000	91.280	-164.4445
1525.000000	91.399	-166.2560
1550.000000	91.448	-168.0417
1575.000000	91.442	-169.5912
1600.000000	91.408	-170.8288
1625.000000	91.367	-171.7752
1650.000000	91.335	-172.4765
1675.000000	91.324	-173.0203
1700.000000	91.336	-173.5109
1725.000000	91.365	-174.0262
1750.000000	91.400	-174.5781
1775.000000	91.440	-175.1370
1800.000000	91.492	-175.7124
1825.000000	91.554	-176.3771
1850.000000	91.617	-177.1750
1875.000000	91.671	-178.0916
1900.000000	91.710	-179.0847
1925.000000	91.734	179.8952
1950.000000	91.747	178.8781
1975.000000	91.755	177.8444
2000.000000	91.754	176.7604
2030.000000	91.731	175.4053
2060.000000	91.683	174.0499
2090.000000	91.609	172.7413
2120.000000	91.512	171.5123
2140.000000	91.434	170.7641
2180.000000	91.262	169.4977
2200.000000	91.174	168.9675
2240.000000	90.999	168.0552
2270.000000	90.868	167.5031
2300.000000	90.744	167.0762
2330.000000	90.638	166.7380
2360.000000	90.556	166.3770
2400.000000	90.462	165.6747
2430.000000	90.378	164.9835
2470.000000	90.227	164.0045
2500.000000	90.084	163.3397
2540.000000	89.863	162.6707
2580.000000	89.632	162.2971
2620.000000	89.409	162.1409
2650.000000	89.248	162.1199
2690.000000	89.041	162.2159
2720.000000	88.895	162.3853
2760.000000	88.722	162.6861
2800.000000	88.573	162.9684
2850.000000	88.403	163.1748
2900.000000	88.220	163.1722
2950.000000	87.983	163.1223
3000.000000	87.675	163.3984
3040.000000	87.394	164.1533
3070.000000	87.190	165.1254
3110.000000	86.974	166.8811
3150.000000	86.862	168.8452
3200.000000	86.857	171.0142
3250.000000	86.928	172.5104
3300.000000	86.996	173.3693
3350.000000	87.022	173.8602
3400.000000	86.997	174.2517
3450.000000	86.929	174.7681
3500.000000	86.842	175.5908
3550.000000	86.778	176.7258
3600.000000	86.763	177.9882
3650.000000	86.797	179.1633
3700.000000	86.858	-179.8569
3750.000000	86.930	-179.0666
3820.000000	87.036	-178.2292
3870.000000	87.108	-177.7755
3950.000000	87.228	-177.2446
4000.000000	87.307	-177.1212
4060.000000	87.385	-177.2957
4120.000000	87.405	-177.7473
4180.000000	87.344	-178.1729
4250.000000	87.197	-178.1364
4310.000000	87.077	-177.4954
4370.000000	87.019	-176.6016
4440.000000	87.016	-175.7488
4500.000000	87.017	-175.2784
4550.000000	87.000	-174.9532
4620.000000	86.952	-174.4001
4680.000000	86.906	-173.7185
4750.000000	86.883	-172.6929
4820.000000	86.918	-171.6402
4870.000000	86.975	-171.0276
4940.000000	87.076	-170.5024
5000.000000	87.159	-170.4082
5080.000000	87.223	-170.7337
5150.000000	87.210	-171.2717
5220.000000	87.124	-171.8560
5300.000000	86.933	-172.3638
5380.000000	86.641	-172.4613
5450.000000	86.296	-171.9194
5520.000000	85.878	-170.3098
5600.000000	85.413	-166.5096
5700.000000	85.248	-159.1926
5800.000000	85.780	-152.4260
5900.000000	86.545	-149.0213
6000.000000	87.152	-148.2015
6080.000000	87.492	-148.2435
6150.000000	87.713	-148.3202
6220.000000	87.891	-148.2775
6300.000000	88.070	-148.0385
6400.000000	88.288	-147.5186
6500.000000	88.511	-146.8805
6600.000000	88.733	-146.1683
6700.000000	88.957	-145.2923
6800.000000	89.208	-144.1183
6900.000000	89.532	-142.6267
7000.000000	89.977	-140.9776
7100.000000	90.568	-139.4737
7200.000000	91.306	-138.4908
7300.000000	92.156	-138.4362
7400.000000	93.057	-139.6812
7500.000000	93.934	-142.4483
7620.000000	94.864	-147.7765
7750.000000	95.646	-155.6939
7880.000000	96.147	-165.4462
8000.000000	96.303	-175.8415
8120.000000	96.063	173.0932
8250.000000	95.281	162.1339
8380.000000	94.013	154.2075
8500.000000	92.546	150.4892
8620.000000	90.949	150.3895
8750.000000	89.303	153.8072
8850.000000	88.295	157.8420
9000.000000	87.351	163.7985
9120.000000	86.928	167.6106
9250.000000	86.591	171.1143
9380.000000	86.317	174.5310
9500.000000	86.140	177.7361
9620.000000	86.054	-179.1752
9750.000000	86.042	-176.1308
9880.000000	86.089	-173.3996
10000.000000	86.176	-171.0501
10150.000000	86.375	-168.2507
10300.000000	86.722	-165.9091
10440.000000	87.152	-164.7635
10600.000000	87.638	-165.2102
10750.000000	87.951	-167.2431
10900.000000	88.026	-170.0590
11060.000000	87.852	-172.5775
11200.000000	87.610	-173.8195
11380.000000	87.318	-174.7202
11500.000000	87.122	-175.2390
11720.000000	86.674	-175.6489
11800.000000	86.490	-175.4414
12060.000000	85.978	-173.3678
12200.000000	85.827	-171.7799
12410.000000	85.777	-169.6563
12500.000000	85.796	-168.9739
12650.000000	85.851	-168.1059
12800.000000	85.935	-167.4684
13150.000000	86.277	-167.5732
13200.000000	86.324	-167.8937
13400.000000	86.408	-169.7584
13600.000000	86.312	-171.5454
13800.000000	86.193	-172.5439
14000.000000	86.185	-173.6557
14300.000000	86.141	-177.3418
14500.000000	85.898	179.6677
14750.000000	85.377	176.9437
15000.000000	84.797	175.9469
15250.000000	84.379	176.3236
15500.000000	84.326	177.0190
15750.000000	84.715	176.1631
16000.000000	85.328	171.4048
16250.000000	85.713	161.5130
16500.000000	85.458	148.2441
16750.000000	84.402	135.9357
17000.000000	82.675	128.0966
17250.000000	80.587	125.1509
17500.000000	78.479	125.4628
17750.000000	76.606	127.0949
18000.000000	75.063	128.6407
18250.000000	73.794	129.2755
18500.000000	72.673	128.6158
18750.000000	71.539	126.7980
19000.000000	70.227	124.7896
19250.000000	68.603	124.5163
19500.000000	66.615	128.1434
19750.000000	64.356	136.5502
20000.000000	62.097	148.4355
