* Measurement data measured by REW V5.20.5
* Source: Mic in at front panel (Pink) (Realtek(R) Audio), MICROPHONE (Master Volume), L, volume: 0.250
* Format: 256k Log Swept Sine, 1 sweep at -12.0 dBFS with no timing reference
* Dated: Feb 19, 2022 12:23:46 PM
* REW Settings:
*  C-weighting compensation: Off
*  Target level: 75.0 dB
* Note: Softears Volume L
* Measurement: Softears Volume L
* Smoothing: 1/12 octave
* Frequency Step: 1/48 octave
* Start Frequency: 20.000 Hz
*
* Freq(Hz)	SPL(dB)	Phase(degrees)
20.000000	97.996	-158.8862
20.299999	97.996	-159.4488
20.600000	97.995	-160.0045
20.900000	97.994	-160.5543
21.200001	97.992	-161.0977
21.400000	97.990	-161.4550
21.799999	97.986	-162.1524
22.000000	97.984	-162.4900
22.400000	97.978	-163.1389
22.700001	97.974	-163.6026
23.000000	97.971	-164.0500
23.299999	97.970	-164.4867
23.600000	97.969	-164.9178
24.000000	97.968	-165.4897
24.299999	97.966	-165.9170
24.700001	97.961	-166.4807
25.000000	97.956	-166.8938
25.400000	97.947	-167.4260
25.799999	97.937	-167.9350
26.200001	97.927	-168.4243
26.500000	97.919	-168.7825
26.900000	97.909	-169.2537
27.200001	97.901	-169.6048
27.600000	97.890	-170.0715
28.000000	97.878	-170.5362
28.500000	97.860	-171.1131
29.000000	97.841	-171.6853
29.500000	97.820	-172.2522
30.000000	97.799	-172.8109
30.400000	97.782	-173.2491
30.700001	97.771	-173.5720
31.100000	97.756	-173.9955
31.500000	97.743	-174.4135
32.000000	97.728	-174.9308
32.500000	97.714	-175.4414
33.000000	97.700	-175.9393
33.500000	97.687	-176.4178
34.000000	97.673	-176.8734
34.500000	97.660	-177.3074
35.000000	97.647	-177.7234
35.500000	97.633	-178.1259
36.000000	97.616	-178.5172
36.500000	97.597	-178.8965
37.000000	97.574	-179.2621
37.500000	97.549	-179.6158
38.200001	97.511	179.8980
38.700001	97.482	179.5499
39.500000	97.432	178.9933
40.000000	97.400	178.6515
40.599998	97.364	178.2490
41.200001	97.332	177.8499
41.799999	97.306	177.4479
42.500000	97.281	176.9666
43.099998	97.264	176.5398
43.700001	97.247	176.1066
44.400002	97.226	175.6138
45.000000	97.205	175.2188
45.500000	97.187	174.9133
46.200001	97.159	174.5211
46.799999	97.132	174.2187
47.500000	97.099	173.9064
48.200001	97.065	173.6243
48.700001	97.042	173.4252
49.400002	97.008	173.1321
50.000000	96.977	172.8708
50.799999	96.930	172.5344
51.500000	96.891	172.2629
52.200001	96.859	171.9918
53.000000	96.828	171.6439
53.799999	96.797	171.2556
54.500000	96.767	170.9208
55.200001	96.738	170.6155
56.000000	96.707	170.2926
57.000000	96.673	169.8962
58.000000	96.639	169.4945
59.000000	96.602	169.0652
60.000000	96.555	168.6244
60.799999	96.510	168.3054
61.500000	96.470	168.0574
62.200001	96.432	167.8249
63.000000	96.389	167.5656
64.000000	96.334	167.2571
65.000000	96.279	166.9912
66.000000	96.227	166.7718
67.000000	96.176	166.5810
68.000000	96.124	166.4231
69.000000	96.072	166.3300
70.000000	96.032	166.2957
71.000000	96.009	166.1904
72.000000	95.984	165.9118
73.000000	95.938	165.5822
74.000000	95.882	165.3326
75.000000	95.837	165.1216
76.199997	95.792	164.8329
77.500000	95.748	164.4876
78.800003	95.707	164.1354
80.000000	95.671	163.8052
81.199997	95.633	163.4765
82.500000	95.589	163.1411
83.800003	95.543	162.8146
85.000000	95.496	162.5092
86.199997	95.442	162.2189
87.500000	95.377	161.9420
88.500000	95.325	161.7568
90.000000	95.249	161.5136
91.199997	95.190	161.3379
92.500000	95.130	161.1620
93.800003	95.071	160.9980
95.000000	95.019	160.8500
96.199997	94.966	160.7022
97.500000	94.908	160.5439
98.800003	94.850	160.3955
100.000000	94.797	160.2814
101.500000	94.734	160.1825
103.000000	94.675	160.1302
104.400002	94.622	160.1134
106.000000	94.566	160.1020
107.500000	94.519	160.0439
109.000000	94.471	159.9036
110.599998	94.411	159.7044
112.000000	94.352	159.5375
113.800003	94.268	159.3323
115.000000	94.207	159.1825
117.199997	94.088	158.8806
118.000000	94.043	158.7859
120.599998	93.918	158.7425
122.000000	93.877	158.8824
124.099998	93.837	159.1058
125.000000	93.817	159.1747
126.500000	93.775	159.2472
128.000000	93.724	159.2752
131.500000	93.603	159.2651
132.000000	93.587	159.2643
134.000000	93.524	159.2776
136.000000	93.460	159.3260
138.000000	93.401	159.4037
140.000000	93.353	159.4999
143.000000	93.290	159.6630
145.000000	93.237	159.7397
147.500000	93.146	159.7299
150.000000	93.038	159.6361
152.500000	92.933	159.6175
155.000000	92.848	159.7570
157.500000	92.782	159.9900
160.000000	92.720	160.2220
162.500000	92.655	160.4095
165.000000	92.590	160.5270
167.500000	92.527	160.5776
170.000000	92.464	160.6290
172.500000	92.398	160.7465
175.000000	92.332	160.9208
177.500000	92.269	161.0995
180.000000	92.209	161.2606
182.500000	92.153	161.4210
185.000000	92.099	161.5921
187.500000	92.043	161.7717
190.000000	91.986	161.9608
192.500000	91.929	162.1611
195.000000	91.874	162.3696
197.500000	91.823	162.5807
200.000000	91.775	162.7934
203.000000	91.723	163.0526
206.000000	91.680	163.2975
209.000000	91.642	163.5076
212.000000	91.605	163.6885
214.000000	91.582	163.8104
218.000000	91.532	164.1116
220.000000	91.498	164.3011
224.000000	91.411	164.7315
227.000000	91.346	165.0466
230.000000	91.290	165.3398
233.000000	91.244	165.6247
236.000000	91.204	165.9059
240.000000	91.150	166.2599
243.000000	91.103	166.5067
247.000000	91.036	166.8459
250.000000	90.988	167.1377
254.000000	90.931	167.5873
258.000000	90.887	168.0584
262.000000	90.854	168.4712
265.000000	90.828	168.7346
269.000000	90.789	169.0747
272.000000	90.758	169.3516
276.000000	90.720	169.7597
280.000000	90.688	170.1998
285.000000	90.662	170.7444
290.000000	90.648	171.1920
295.000000	90.633	171.5184
300.000000	90.604	171.8216
304.000000	90.575	172.0956
307.000000	90.551	172.3173
311.000000	90.520	172.6195
315.000000	90.489	172.9206
320.000000	90.446	173.3099
325.000000	90.405	173.7344
330.000000	90.370	174.1822
335.000000	90.340	174.6270
340.000000	90.313	175.0525
345.000000	90.284	175.4632
350.000000	90.255	175.8737
355.000000	90.225	176.2896
360.000000	90.198	176.7079
365.000000	90.171	177.1270
370.000000	90.146	177.5458
375.000000	90.122	177.9645
382.000000	90.091	178.5516
387.000000	90.071	178.9716
395.000000	90.042	179.6436
400.000000	90.026	-179.9394
406.000000	90.010	-179.4503
412.000000	89.993	-178.9760
418.000000	89.975	-178.4996
425.000000	89.957	-177.9166
431.000000	89.947	-177.4024
437.000000	89.944	-176.9029
444.000000	89.947	-176.3575
450.000000	89.954	-175.9367
455.000000	89.959	-175.6353
462.000000	89.958	-175.2750
468.000000	89.947	-174.9678
475.000000	89.928	-174.5670
482.000000	89.909	-174.1374
487.000000	89.894	-173.8264
494.000000	89.871	-173.3700
500.000000	89.853	-172.9457
508.000000	89.834	-172.3651
515.000000	89.821	-171.8744
522.000000	89.807	-171.3893
530.000000	89.792	-170.8120
538.000000	89.781	-170.2191
545.000000	89.775	-169.7115
552.000000	89.770	-169.2170
560.000000	89.764	-168.6696
570.000000	89.753	-168.0002
580.000000	89.738	-167.2982
590.000000	89.725	-166.5396
600.000000	89.719	-165.7332
608.000000	89.721	-165.0856
615.000000	89.727	-164.5376
622.000000	89.733	-164.0000
630.000000	89.741	-163.3780
640.000000	89.755	-162.5877
650.000000	89.776	-161.7946
660.000000	89.806	-161.0123
670.000000	89.846	-160.3013
680.000000	89.883	-159.6783
690.000000	89.911	-159.0893
700.000000	89.933	-158.4856
710.000000	89.954	-157.8564
720.000000	89.975	-157.2211
730.000000	89.997	-156.5871
740.000000	90.018	-155.9456
750.000000	90.040	-155.2895
762.000000	90.068	-154.4824
775.000000	90.101	-153.5914
788.000000	90.138	-152.6874
800.000000	90.177	-151.8270
812.000000	90.226	-150.9429
825.000000	90.296	-150.0227
838.000000	90.372	-149.2083
850.000000	90.438	-148.5270
862.000000	90.498	-147.8580
875.000000	90.560	-147.1175
885.000000	90.610	-146.5372
900.000000	90.689	-145.6718
912.000000	90.756	-144.9873
925.000000	90.836	-144.2645
938.000000	90.921	-143.5847
950.000000	91.001	-143.0041
962.000000	91.081	-142.4563
975.000000	91.166	-141.8799
988.000000	91.251	-141.3100
1000.000000	91.330	-140.7827
1015.000000	91.433	-140.1088
1030.000000	91.547	-139.4413
1044.000000	91.665	-138.8850
1060.000000	91.802	-138.3812
1075.000000	91.923	-138.0027
1090.000000	92.036	-137.6584
1106.000000	92.152	-137.3077
1120.000000	92.250	-137.0168
1138.000000	92.375	-136.6729
1150.000000	92.456	-136.4649
1172.000000	92.598	-136.1095
1180.000000	92.648	-135.9804
1206.000000	92.820	-135.5974
1220.000000	92.914	-135.4607
1241.000000	93.041	-135.3326
1250.000000	93.090	-135.2854
1265.000000	93.166	-135.2003
1280.000000	93.237	-135.1033
1315.000000	93.386	-134.8290
1320.000000	93.406	-134.7863
1340.000000	93.484	-134.6036
1360.000000	93.560	-134.3759
1380.000000	93.639	-134.0678
1400.000000	93.728	-133.6671
1430.000000	93.896	-133.0351
1450.000000	94.016	-132.7126
1475.000000	94.155	-132.4068
1500.000000	94.272	-132.1202
1525.000000	94.361	-131.7767
1550.000000	94.428	-131.3359
1575.000000	94.492	-130.8162
1600.000000	94.566	-130.3211
1625.000000	94.641	-129.9118
1650.000000	94.708	-129.5445
1675.000000	94.769	-129.1656
1700.000000	94.828	-128.7584
1725.000000	94.885	-128.3292
1750.000000	94.936	-127.8619
1775.000000	94.985	-127.3217
1800.000000	95.043	-126.7201
1825.000000	95.116	-126.1314
1850.000000	95.196	-125.5977
1875.000000	95.278	-125.1021
1900.000000	95.364	-124.6079
1925.000000	95.461	-124.0807
1950.000000	95.576	-123.5118
1975.000000	95.713	-122.9426
2000.000000	95.862	-122.4248
2030.000000	96.045	-121.8760
2060.000000	96.224	-121.3602
2090.000000	96.401	-120.8410
2120.000000	96.575	-120.2953
2140.000000	96.691	-119.8971
2180.000000	96.939	-119.0021
2200.000000	97.078	-118.5495
2240.000000	97.379	-117.7867
2270.000000	97.611	-117.3831
2300.000000	97.839	-117.0878
2330.000000	98.062	-116.8385
2360.000000	98.287	-116.6124
2400.000000	98.589	-116.3702
2430.000000	98.817	-116.2274
2470.000000	99.126	-116.0605
2500.000000	99.365	-115.9468
2540.000000	99.702	-115.8001
2580.000000	100.077	-115.7135
2620.000000	100.493	-115.8801
2650.000000	100.818	-116.2793
2690.000000	101.242	-117.2054
2720.000000	101.545	-118.1554
2760.000000	101.919	-119.7037
2800.000000	102.255	-121.5221
2850.000000	102.614	-124.0635
2900.000000	102.904	-126.7730
2950.000000	103.132	-129.5122
3000.000000	103.313	-132.2411
3040.000000	103.424	-134.4349
3070.000000	103.485	-136.0645
3110.000000	103.541	-138.1662
3150.000000	103.576	-140.1716
3200.000000	103.600	-142.5896
3250.000000	103.597	-144.9632
3300.000000	103.560	-147.2830
3350.000000	103.486	-149.4634
3400.000000	103.383	-151.4496
3450.000000	103.257	-153.2153
3500.000000	103.117	-154.7034
3550.000000	102.976	-155.9024
3600.000000	102.848	-156.8830
3650.000000	102.733	-157.7284
3700.000000	102.627	-158.4731
3750.000000	102.528	-159.1107
3820.000000	102.404	-159.8595
3870.000000	102.321	-160.3085
3950.000000	102.212	-160.8783
4000.000000	102.168	-161.2184
4060.000000	102.136	-161.7190
4120.000000	102.114	-162.3534
4180.000000	102.094	-163.1212
4250.000000	102.060	-164.1865
4310.000000	102.012	-165.1958
4370.000000	101.948	-166.2699
4440.000000	101.848	-167.6323
4500.000000	101.732	-168.8752
4550.000000	101.608	-169.9114
4620.000000	101.391	-171.2708
4680.000000	101.164	-172.2412
4750.000000	100.869	-173.0226
4820.000000	100.566	-173.4065
4870.000000	100.356	-173.4635
4940.000000	100.078	-173.2756
5000.000000	99.863	-172.9055
5080.000000	99.616	-172.1607
5150.000000	99.446	-171.3204
5220.000000	99.331	-170.4213
5300.000000	99.265	-169.5100
5380.000000	99.247	-168.8878
5450.000000	99.246	-168.6465
5520.000000	99.240	-168.6638
5600.000000	99.217	-168.9451
5700.000000	99.148	-169.6227
5800.000000	99.016	-170.5416
5900.000000	98.802	-171.4650
6000.000000	98.510	-172.0856
6080.000000	98.240	-172.2375
6150.000000	97.992	-172.0942
6220.000000	97.740	-171.6954
6300.000000	97.456	-170.9215
6400.000000	97.125	-169.4697
6500.000000	96.846	-167.5382
6600.000000	96.639	-165.2568
6700.000000	96.512	-162.7478
6800.000000	96.473	-160.0845
6900.000000	96.529	-157.3541
7000.000000	96.686	-154.6896
7100.000000	96.945	-152.2245
7200.000000	97.313	-150.0723
7300.000000	97.796	-148.3904
7400.000000	98.390	-147.4261
7500.000000	99.066	-147.4715
7620.000000	99.920	-149.2425
7750.000000	100.776	-153.6796
7880.000000	101.400	-160.8244
8000.000000	101.640	-169.2449
8120.000000	101.489	-178.2487
8250.000000	100.889	172.9250
8380.000000	99.922	166.3836
8500.000000	98.831	162.8355
8620.000000	97.689	161.4621
8750.000000	96.513	161.8435
8850.000000	95.702	163.0902
9000.000000	94.681	165.9913
9120.000000	94.046	168.8265
9250.000000	93.533	172.1144
9380.000000	93.190	175.4274
9500.000000	93.015	178.3305
9620.000000	92.963	-179.0750
9750.000000	93.027	-176.7528
9880.000000	93.194	-175.0952
10000.000000	93.407	-174.3025
10150.000000	93.695	-174.4288
10300.000000	93.943	-175.7902
10440.000000	94.082	-178.0139
10600.000000	94.091	178.7132
10750.000000	93.941	175.3530
10900.000000	93.636	172.1213
11060.000000	93.159	169.2706
11200.000000	92.656	167.5100
11380.000000	91.960	166.3039
11500.000000	91.501	166.0828
11720.000000	90.739	166.5079
11800.000000	90.496	166.8260
12060.000000	89.848	167.9913
12200.000000	89.577	168.4768
12410.000000	89.230	168.7828
12500.000000	89.089	168.7390
12650.000000	88.842	168.4804
12800.000000	88.564	168.1247
13150.000000	87.784	168.0907
13200.000000	87.669	168.2677
13400.000000	87.263	169.4536
13600.000000	87.015	171.1693
13800.000000	87.013	172.8462
14000.000000	87.287	173.5842
14300.000000	87.988	170.5284
14500.000000	88.325	164.8825
14750.000000	88.259	155.2315
15000.000000	87.611	145.9111
15250.000000	86.636	138.7530
15500.000000	85.635	133.0440
15750.000000	84.706	127.4350
16000.000000	83.746	121.5257
16250.000000	82.636	115.9130
16500.000000	81.354	111.3674
16750.000000	79.975	108.1342
17000.000000	78.607	105.8087
17250.000000	77.334	103.6186
17500.000000	76.158	100.8494
17750.000000	74.980	97.3518
18000.000000	73.641	94.0553
18250.000000	72.014	93.0621
18500.000000	70.132	96.5065
18750.000000	68.377	103.8609
19000.000000	67.329	110.5914
19250.000000	66.880	112.5339
19500.000000	66.396	110.5655
19750.000000	65.715	107.9880
