* Measurement data measured by REW V5.20.4
* Source: Mic in at front panel (Pink) (Realtek(R) Audio), MICROPHONE (Master Volume), L, volume: 0.250
* Format: 256k Log Swept Sine, 1 sweep at -12.0 dBFS with no timing reference
* Dated: Jul 12, 2022 12:34:18 AM
* REW Settings:
*  C-weighting compensation: Off
*  Target level: 75.0 dB
* Note: Tanya Open Back
* Measurement: Tanya Open Back
* Smoothing: 1/12 octave
* Frequency Step: 1/48 octave
* Start Frequency: 20.000 Hz
*
* Freq(Hz)	SPL(dB)	Phase(degrees)
20.000000	92.429	-119.1026
20.299999	92.503	-119.8185
20.600000	92.571	-120.5360
20.900000	92.634	-121.2511
21.200001	92.692	-121.9565
21.400000	92.731	-122.4178
21.799999	92.810	-123.3172
22.000000	92.850	-123.7557
22.400000	92.934	-124.6154
22.700001	92.999	-125.2512
23.000000	93.063	-125.8843
23.299999	93.128	-126.5159
23.600000	93.190	-127.1455
24.000000	93.270	-127.9780
24.299999	93.327	-128.5932
24.700001	93.396	-129.3973
25.000000	93.445	-129.9864
25.400000	93.506	-130.7533
25.799999	93.565	-131.5024
26.200001	93.623	-132.2390
26.500000	93.666	-132.7864
26.900000	93.719	-133.5115
27.200001	93.756	-134.0512
27.600000	93.800	-134.7623
28.000000	93.843	-135.4594
28.500000	93.895	-136.3077
29.000000	93.949	-137.1341
29.500000	94.004	-137.9462
30.000000	94.057	-138.7486
30.400000	94.098	-139.3826
30.700001	94.130	-139.8522
31.100000	94.171	-140.4697
31.500000	94.211	-141.0779
32.000000	94.258	-141.8280
32.500000	94.299	-142.5710
33.000000	94.338	-143.3087
33.500000	94.375	-144.0390
34.000000	94.412	-144.7572
34.500000	94.449	-145.4611
35.000000	94.485	-146.1523
35.500000	94.523	-146.8354
36.000000	94.561	-147.5111
36.500000	94.598	-148.1739
37.000000	94.631	-148.8160
37.500000	94.660	-149.4356
38.200001	94.694	-150.2800
38.700001	94.712	-150.8793
39.500000	94.734	-151.8363
40.000000	94.747	-152.4255
40.599998	94.764	-153.1172
41.200001	94.784	-153.7911
41.799999	94.806	-154.4483
42.500000	94.833	-155.1962
43.099998	94.858	-155.8258
43.700001	94.882	-156.4498
44.400002	94.906	-157.1718
45.000000	94.921	-157.7807
45.500000	94.931	-158.2775
46.200001	94.942	-158.9565
46.799999	94.950	-159.5267
47.500000	94.956	-160.1829
48.200001	94.956	-160.8302
48.700001	94.954	-161.2863
49.400002	94.950	-161.9158
50.000000	94.950	-162.4479
50.799999	94.954	-163.1484
51.500000	94.961	-163.7493
52.200001	94.966	-164.3265
53.000000	94.969	-164.9435
53.799999	94.974	-165.5258
54.500000	94.982	-166.0305
55.200001	94.993	-166.5429
56.000000	95.005	-167.1341
57.000000	95.014	-167.8717
58.000000	95.017	-168.6047
59.000000	95.014	-169.3313
60.000000	95.007	-170.0582
60.799999	94.999	-170.6405
61.500000	94.990	-171.1429
62.200001	94.980	-171.6324
63.000000	94.971	-172.1732
64.000000	94.962	-172.8212
65.000000	94.954	-173.4455
66.000000	94.945	-174.0574
67.000000	94.936	-174.6532
68.000000	94.926	-175.2211
69.000000	94.914	-175.7615
70.000000	94.900	-176.2931
71.000000	94.881	-176.8353
72.000000	94.856	-177.3714
73.000000	94.833	-177.8772
74.000000	94.817	-178.3757
75.000000	94.807	-178.9046
76.199997	94.789	-179.5710
77.500000	94.764	179.7264
78.800003	94.737	179.0672
80.000000	94.713	178.4754
81.199997	94.688	177.8770
82.500000	94.657	177.2112
83.800003	94.622	176.5321
85.000000	94.585	175.9104
86.199997	94.543	175.3151
87.500000	94.495	174.7234
88.500000	94.455	174.3214
90.000000	94.399	173.8011
91.199997	94.360	173.4212
92.500000	94.322	173.0018
93.800003	94.283	172.5586
95.000000	94.245	172.1462
96.199997	94.207	171.7428
97.500000	94.165	171.3071
98.800003	94.121	170.8710
100.000000	94.078	170.4852
101.500000	94.024	170.0430
103.000000	93.977	169.6385
104.400002	93.940	169.2719
106.000000	93.900	168.8413
107.500000	93.856	168.4216
109.000000	93.805	167.9899
110.599998	93.746	167.5157
112.000000	93.695	167.0980
113.800003	93.630	166.6014
115.000000	93.585	166.3333
117.199997	93.500	166.0300
118.000000	93.470	165.9628
120.599998	93.380	165.6323
122.000000	93.328	165.3139
124.099998	93.250	164.7667
125.000000	93.222	164.5382
126.500000	93.183	164.1860
128.000000	93.151	163.8691
131.500000	93.045	163.1821
132.000000	93.024	163.0907
134.000000	92.936	162.7386
136.000000	92.848	162.3920
138.000000	92.764	162.0592
140.000000	92.680	161.7565
143.000000	92.555	161.3189
145.000000	92.474	161.0000
147.500000	92.373	160.6262
150.000000	92.271	160.3901
152.500000	92.163	160.2719
155.000000	92.045	160.1945
157.500000	91.924	160.1422
160.000000	91.803	160.1168
162.500000	91.674	160.1709
165.000000	91.527	160.3750
167.500000	91.356	160.8070
170.000000	91.171	161.5651
172.500000	91.009	162.7254
175.000000	90.920	164.2401
177.500000	90.951	165.8787
180.000000	91.118	167.2454
182.500000	91.384	167.9233
185.000000	91.671	167.7175
187.500000	91.905	166.7520
190.000000	92.049	165.3570
192.500000	92.108	163.8775
195.000000	92.103	162.5337
197.500000	92.055	161.4112
200.000000	91.978	160.5127
203.000000	91.868	159.6618
206.000000	91.755	158.9520
209.000000	91.641	158.3583
212.000000	91.526	157.9388
214.000000	91.449	157.7504
218.000000	91.297	157.4913
220.000000	91.225	157.3918
224.000000	91.091	157.2173
227.000000	91.000	157.0937
230.000000	90.916	156.9771
233.000000	90.836	156.8715
236.000000	90.757	156.7739
240.000000	90.651	156.6511
243.000000	90.569	156.5721
247.000000	90.457	156.5072
250.000000	90.374	156.5035
254.000000	90.270	156.5643
258.000000	90.180	156.6556
262.000000	90.098	156.7055
265.000000	90.035	156.7123
269.000000	89.947	156.7263
272.000000	89.879	156.7643
276.000000	89.792	156.8538
280.000000	89.711	156.9706
285.000000	89.620	157.1185
290.000000	89.540	157.1957
295.000000	89.457	157.1883
300.000000	89.365	157.1929
304.000000	89.289	157.2448
307.000000	89.233	157.3050
311.000000	89.159	157.3984
315.000000	89.083	157.5009
320.000000	88.984	157.6574
325.000000	88.889	157.8639
330.000000	88.801	158.1041
335.000000	88.717	158.3468
340.000000	88.635	158.5727
345.000000	88.556	158.7843
350.000000	88.480	158.9945
355.000000	88.409	159.2088
360.000000	88.338	159.4293
365.000000	88.263	159.6582
370.000000	88.186	159.8978
375.000000	88.110	160.1490
382.000000	88.010	160.5179
387.000000	87.942	160.7905
395.000000	87.836	161.2418
400.000000	87.771	161.5316
406.000000	87.694	161.8796
412.000000	87.616	162.2248
418.000000	87.538	162.5828
425.000000	87.452	163.0398
431.000000	87.387	163.4564
437.000000	87.327	163.8696
444.000000	87.263	164.3308
450.000000	87.212	164.6936
455.000000	87.170	164.9569
462.000000	87.105	165.2796
468.000000	87.042	165.5656
475.000000	86.967	165.9489
482.000000	86.895	166.3672
487.000000	86.843	166.6732
494.000000	86.768	167.1251
500.000000	86.705	167.5465
508.000000	86.630	168.1245
515.000000	86.569	168.6147
522.000000	86.507	169.1005
530.000000	86.435	169.6805
538.000000	86.367	170.2891
545.000000	86.313	170.8293
552.000000	86.261	171.3717
560.000000	86.206	171.9835
570.000000	86.140	172.7266
580.000000	86.073	173.4732
590.000000	86.003	174.2407
600.000000	85.935	175.0398
608.000000	85.888	175.6918
615.000000	85.851	176.2612
622.000000	85.813	176.8384
630.000000	85.771	177.5267
640.000000	85.724	178.4235
650.000000	85.687	179.3323
660.000000	85.664	-179.7751
670.000000	85.653	-178.9588
680.000000	85.641	-178.2224
690.000000	85.619	-177.5052
700.000000	85.591	-176.7611
710.000000	85.564	-175.9810
720.000000	85.541	-175.1843
730.000000	85.522	-174.3824
740.000000	85.505	-173.5737
750.000000	85.491	-172.7564
762.000000	85.476	-171.7635
775.000000	85.467	-170.6764
788.000000	85.466	-169.5838
800.000000	85.474	-168.5597
812.000000	85.493	-167.5243
825.000000	85.529	-166.4521
838.000000	85.572	-165.4933
850.000000	85.605	-164.6812
862.000000	85.631	-163.8815
875.000000	85.657	-162.9976
885.000000	85.679	-162.3054
900.000000	85.717	-161.2687
912.000000	85.750	-160.4410
925.000000	85.793	-159.5498
938.000000	85.842	-158.6852
950.000000	85.890	-157.9229
962.000000	85.939	-157.1882
975.000000	85.993	-156.4090
988.000000	86.050	-155.6395
1000.000000	86.103	-154.9309
1015.000000	86.173	-154.0323
1030.000000	86.253	-153.1383
1044.000000	86.339	-152.3664
1060.000000	86.443	-151.6140
1075.000000	86.533	-151.0044
1090.000000	86.618	-150.4318
1106.000000	86.706	-149.8370
1120.000000	86.781	-149.3216
1138.000000	86.872	-148.6487
1150.000000	86.929	-148.1845
1172.000000	87.035	-147.2858
1180.000000	87.077	-146.9433
1206.000000	87.241	-145.8655
1220.000000	87.343	-145.3866
1241.000000	87.493	-144.8301
1250.000000	87.552	-144.6342
1265.000000	87.643	-144.3406
1280.000000	87.723	-144.0678
1315.000000	87.884	-143.4173
1320.000000	87.906	-143.3208
1340.000000	87.988	-142.9250
1360.000000	88.064	-142.4960
1380.000000	88.138	-142.0036
1400.000000	88.217	-141.4294
1430.000000	88.365	-140.5204
1450.000000	88.479	-139.9815
1475.000000	88.628	-139.3720
1500.000000	88.787	-138.7750
1525.000000	88.959	-138.1495
1550.000000	89.144	-137.4716
1575.000000	89.331	-136.7578
1600.000000	89.490	-136.1022
1625.000000	89.577	-135.5580
1650.000000	89.579	-135.0793
1675.000000	89.525	-134.6157
1700.000000	89.463	-134.1527
1725.000000	89.432	-133.6931
1750.000000	89.445	-133.2093
1775.000000	89.503	-132.6486
1800.000000	89.597	-131.9973
1825.000000	89.714	-131.3004
1850.000000	89.838	-130.5740
1875.000000	89.967	-129.7880
1900.000000	90.103	-128.9110
1925.000000	90.254	-127.9370
1950.000000	90.429	-126.9040
1975.000000	90.629	-125.9037
2000.000000	90.847	-125.0250
2030.000000	91.113	-124.1573
2060.000000	91.372	-123.4463
2090.000000	91.621	-122.8482
2120.000000	91.854	-122.3295
2140.000000	91.999	-121.9909
2180.000000	92.276	-121.2015
2200.000000	92.418	-120.7256
2240.000000	92.724	-119.6127
2270.000000	92.985	-118.6498
2300.000000	93.286	-117.6191
2330.000000	93.638	-116.6049
2360.000000	94.042	-115.7401
2400.000000	94.644	-115.0489
2430.000000	95.122	-114.9779
2470.000000	95.757	-115.5440
2500.000000	96.208	-116.4519
2540.000000	96.749	-118.1473
2580.000000	97.223	-120.1547
2620.000000	97.643	-122.3303
2650.000000	97.927	-124.0346
2690.000000	98.273	-126.3615
2720.000000	98.512	-128.1326
2760.000000	98.809	-130.5643
2800.000000	99.078	-133.1355
2850.000000	99.362	-136.5497
2900.000000	99.573	-140.0947
2950.000000	99.709	-143.6030
3000.000000	99.784	-146.9819
3040.000000	99.811	-149.5907
3070.000000	99.813	-151.4759
3110.000000	99.800	-153.8668
3150.000000	99.776	-156.1301
3200.000000	99.736	-158.8529
3250.000000	99.676	-161.5045
3300.000000	99.582	-164.0477
3350.000000	99.453	-166.3894
3400.000000	99.298	-168.5059
3450.000000	99.117	-170.4202
3500.000000	98.909	-172.1066
3550.000000	98.684	-173.5446
3600.000000	98.453	-174.7629
3650.000000	98.225	-175.7965
3700.000000	98.001	-176.6473
3750.000000	97.788	-177.2933
3820.000000	97.523	-177.8764
3870.000000	97.362	-178.0806
3950.000000	97.163	-178.0702
4000.000000	97.079	-177.9531
4060.000000	97.003	-177.8230
4120.000000	96.934	-177.7366
4180.000000	96.862	-177.6873
4250.000000	96.767	-177.6720
4310.000000	96.678	-177.6513
4370.000000	96.596	-177.6183
4440.000000	96.521	-177.6402
4500.000000	96.471	-177.7565
4550.000000	96.438	-177.9221
4620.000000	96.400	-178.2537
4680.000000	96.371	-178.5963
4750.000000	96.349	-179.0214
4820.000000	96.347	-179.5083
4870.000000	96.358	-179.9296
4940.000000	96.382	179.3607
5000.000000	96.405	178.6415
5080.000000	96.423	177.5734
5150.000000	96.424	176.6035
5220.000000	96.413	175.6068
5300.000000	96.377	174.3999
5380.000000	96.307	173.1087
5450.000000	96.206	171.9380
5520.000000	96.064	170.7999
5600.000000	95.862	169.6028
5700.000000	95.575	168.2679
5800.000000	95.266	167.0851
5900.000000	94.939	166.0926
6000.000000	94.600	165.4013
6080.000000	94.331	165.0815
6150.000000	94.105	164.9456
6220.000000	93.888	164.9180
6300.000000	93.650	165.0158
6400.000000	93.368	165.3546
6500.000000	93.113	165.9211
6600.000000	92.892	166.6498
6700.000000	92.707	167.4896
6800.000000	92.557	168.4360
6900.000000	92.452	169.4618
7000.000000	92.396	170.4873
7100.000000	92.385	171.4327
7200.000000	92.417	172.2536
7300.000000	92.498	172.8925
7400.000000	92.632	173.2467
7500.000000	92.810	173.2110
7620.000000	93.062	172.5494
7750.000000	93.354	170.9018
7880.000000	93.621	168.0323
8000.000000	93.791	164.1925
8120.000000	93.845	159.2938
8250.000000	93.723	153.0493
8380.000000	93.365	146.3579
8500.000000	92.809	140.4372
8620.000000	92.060	135.2938
8750.000000	91.081	130.9508
8850.000000	90.248	128.5888
9000.000000	88.937	126.6100
9120.000000	87.886	126.1943
9250.000000	86.775	126.6949
9380.000000	85.710	128.0111
9500.000000	84.782	129.7944
9620.000000	83.910	131.9987
9750.000000	83.027	134.7815
9880.000000	82.208	137.9023
10000.000000	81.509	141.0144
10150.000000	80.706	145.1696
10300.000000	79.976	149.5824
10440.000000	79.362	153.8738
10600.000000	78.732	158.9485
10750.000000	78.206	163.8419
10900.000000	77.737	168.8241
11060.000000	77.309	174.2217
11200.000000	77.003	178.9902
11380.000000	76.699	-174.8505
11500.000000	76.549	-170.7331
11720.000000	76.379	-163.2118
11800.000000	76.349	-160.4927
12060.000000	76.383	-151.7387
12200.000000	76.490	-147.0964
12410.000000	76.780	-140.2563
12500.000000	76.952	-137.3933
12650.000000	77.303	-132.7519
12800.000000	77.734	-128.3252
13150.000000	79.048	-119.2061
13200.000000	79.268	-118.0725
13400.000000	80.221	-114.0577
13600.000000	81.280	-111.0396
13800.000000	82.451	-109.3564
14000.000000	83.728	-109.4709
14300.000000	85.675	-114.0894
14500.000000	86.788	-120.4728
14750.000000	87.738	-131.3476
15000.000000	88.113	-143.1355
15250.000000	88.022	-153.3896
15500.000000	87.717	-161.4267
15750.000000	87.461	-168.7079
16000.000000	87.391	-178.0335
16250.000000	87.360	168.0368
16500.000000	86.958	149.6974
16750.000000	85.813	131.1876
17000.000000	83.844	117.6631
17250.000000	81.238	111.1058
17500.000000	78.287	110.4077
17750.000000	75.277	113.6107
18000.000000	72.426	119.1900
18250.000000	69.855	126.2365
18500.000000	67.597	134.2490
18750.000000	65.613	142.9541
19000.000000	63.846	152.2216
19250.000000	62.247	161.9991
19500.000000	60.784	172.2668
19750.000000	59.451	-177.0085
20000.000000	58.262	-165.9479
