* Measurement data measured by REW V5.20.4
* Source: Mic in at front panel (Pink) (Realtek(R) Audio), MICROPHONE (Master Volume), L, volume: 0.250
* Format: 256k Log Swept Sine, 1 sweep at -12.0 dBFS with no timing reference
* Dated: Jul 12, 2022 12:32:12 AM
* REW Settings:
*  C-weighting compensation: Off
*  Target level: 75.0 dB
* Note: Tanya Open Back Olina
* Measurement: Tanya Open Back Olina
* Smoothing: 1/12 octave
* Frequency Step: 1/48 octave
* Start Frequency: 20.000 Hz
*
* Freq(Hz)	SPL(dB)	Phase(degrees)
20.000000	93.532	-122.4126
20.299999	93.596	-123.1857
20.600000	93.654	-123.9416
20.900000	93.705	-124.6771
21.200001	93.755	-125.3893
21.400000	93.788	-125.8516
21.799999	93.858	-126.7513
22.000000	93.896	-127.1922
22.400000	93.973	-128.0637
22.700001	94.032	-128.7129
23.000000	94.092	-129.3601
23.299999	94.149	-130.0042
23.600000	94.206	-130.6437
24.000000	94.278	-131.4863
24.299999	94.329	-132.1094
24.700001	94.392	-132.9272
25.000000	94.436	-133.5301
25.400000	94.489	-134.3189
25.799999	94.540	-135.0890
26.200001	94.590	-135.8406
26.500000	94.627	-136.3939
26.900000	94.673	-137.1212
27.200001	94.705	-137.6614
27.600000	94.746	-138.3767
28.000000	94.784	-139.0860
28.500000	94.832	-139.9614
29.000000	94.880	-140.8229
29.500000	94.928	-141.6721
30.000000	94.973	-142.5091
30.400000	95.007	-143.1663
30.700001	95.033	-143.6496
31.100000	95.066	-144.2792
31.500000	95.100	-144.8931
32.000000	95.138	-145.6441
32.500000	95.173	-146.3854
33.000000	95.207	-147.1224
33.500000	95.240	-147.8557
34.000000	95.272	-148.5842
34.500000	95.304	-149.3065
35.000000	95.335	-150.0200
35.500000	95.365	-150.7209
36.000000	95.396	-151.4065
36.500000	95.426	-152.0758
37.000000	95.453	-152.7304
37.500000	95.476	-153.3727
38.200001	95.498	-154.2554
38.700001	95.508	-154.8759
39.500000	95.516	-155.8512
40.000000	95.522	-156.4501
40.599998	95.533	-157.1593
41.200001	95.547	-157.8562
41.799999	95.561	-158.5345
42.500000	95.580	-159.2957
43.099998	95.598	-159.9259
43.700001	95.616	-160.5432
44.400002	95.632	-161.2488
45.000000	95.642	-161.8379
45.500000	95.648	-162.3179
46.200001	95.654	-162.9792
46.799999	95.657	-163.5421
47.500000	95.656	-164.1960
48.200001	95.648	-164.8441
48.700001	95.641	-165.3017
49.400002	95.629	-165.9324
50.000000	95.622	-166.4612
50.799999	95.619	-167.1451
51.500000	95.622	-167.7242
52.200001	95.626	-168.2903
53.000000	95.628	-168.9263
53.799999	95.626	-169.5484
54.500000	95.623	-170.0774
55.200001	95.621	-170.5921
56.000000	95.618	-171.1701
57.000000	95.612	-171.8948
58.000000	95.603	-172.6339
59.000000	95.591	-173.3825
60.000000	95.577	-174.1278
60.799999	95.564	-174.7102
61.500000	95.551	-175.2033
62.200001	95.538	-175.6785
63.000000	95.523	-176.2004
64.000000	95.502	-176.8278
65.000000	95.474	-177.4389
66.000000	95.442	-178.0451
67.000000	95.410	-178.6645
68.000000	95.379	-179.3076
69.000000	95.344	-179.9415
70.000000	95.308	179.5088
71.000000	95.284	179.0703
72.000000	95.281	178.6682
73.000000	95.292	178.2177
74.000000	95.300	177.7010
75.000000	95.292	177.1707
76.199997	95.263	176.5849
77.500000	95.221	175.9828
78.800003	95.175	175.3675
80.000000	95.137	174.7704
81.199997	95.101	174.1467
82.500000	95.064	173.4647
83.800003	95.027	172.7988
85.000000	94.989	172.2115
86.199997	94.945	171.6556
87.500000	94.890	171.0938
88.500000	94.842	170.7024
90.000000	94.772	170.1906
91.199997	94.722	169.8216
92.500000	94.676	169.4299
93.800003	94.636	169.0213
95.000000	94.598	168.6240
96.199997	94.559	168.2186
97.500000	94.513	167.7874
98.800003	94.463	167.3796
100.000000	94.415	167.0316
101.500000	94.357	166.6323
103.000000	94.304	166.2581
104.400002	94.260	165.9144
106.000000	94.211	165.5089
107.500000	94.164	165.1096
109.000000	94.114	164.7000
110.599998	94.056	164.2605
112.000000	94.004	163.8710
113.800003	93.934	163.3603
115.000000	93.885	163.0228
117.199997	93.796	162.4543
118.000000	93.763	162.2737
120.599998	93.661	161.8217
122.000000	93.610	161.6570
124.099998	93.543	161.4230
125.000000	93.515	161.3081
126.500000	93.470	161.0956
128.000000	93.423	160.8696
131.500000	93.307	160.3588
132.000000	93.290	160.2878
134.000000	93.225	159.9881
136.000000	93.157	159.6555
138.000000	93.083	159.3160
140.000000	93.010	158.9927
143.000000	92.909	158.5604
145.000000	92.845	158.3131
147.500000	92.762	158.0372
150.000000	92.670	157.7764
152.500000	92.579	157.5382
155.000000	92.502	157.3266
157.500000	92.438	157.1315
160.000000	92.379	156.9364
162.500000	92.319	156.7192
165.000000	92.249	156.4844
167.500000	92.161	156.2647
170.000000	92.052	156.0909
172.500000	91.934	155.9603
175.000000	91.818	155.8466
177.500000	91.712	155.7323
180.000000	91.623	155.6122
182.500000	91.553	155.4874
185.000000	91.500	155.3600
187.500000	91.456	155.2278
190.000000	91.415	155.0908
192.500000	91.371	154.9551
195.000000	91.318	154.8368
197.500000	91.250	154.7636
200.000000	91.172	154.7402
203.000000	91.080	154.7411
206.000000	90.996	154.7362
209.000000	90.913	154.7069
212.000000	90.825	154.6581
214.000000	90.763	154.6289
218.000000	90.636	154.6263
220.000000	90.574	154.6600
224.000000	90.456	154.7628
227.000000	90.372	154.8436
230.000000	90.291	154.9212
233.000000	90.214	154.9969
236.000000	90.138	155.0854
240.000000	90.033	155.2693
243.000000	89.953	155.4780
247.000000	89.853	155.8636
250.000000	89.791	156.2234
254.000000	89.740	156.7263
258.000000	89.724	157.1094
262.000000	89.721	157.2420
265.000000	89.710	157.1885
269.000000	89.673	157.0260
272.000000	89.629	156.9088
276.000000	89.559	156.8049
280.000000	89.484	156.7656
285.000000	89.395	156.7893
290.000000	89.311	156.8167
295.000000	89.223	156.8025
300.000000	89.126	156.8289
304.000000	89.049	156.9125
307.000000	88.992	157.0006
311.000000	88.917	157.1348
315.000000	88.841	157.2794
320.000000	88.744	157.4819
325.000000	88.653	157.7211
330.000000	88.569	157.9816
335.000000	88.489	158.2382
340.000000	88.410	158.4809
345.000000	88.331	158.7171
350.000000	88.254	158.9620
355.000000	88.182	159.2173
360.000000	88.109	159.4789
365.000000	88.035	159.7480
370.000000	87.959	160.0282
375.000000	87.885	160.3226
382.000000	87.786	160.7553
387.000000	87.719	161.0740
395.000000	87.616	161.5913
400.000000	87.553	161.9192
406.000000	87.478	162.3146
412.000000	87.404	162.7079
418.000000	87.330	163.1121
425.000000	87.248	163.6173
431.000000	87.186	164.0713
437.000000	87.130	164.5214
444.000000	87.069	165.0262
450.000000	87.021	165.4251
455.000000	86.982	165.7159
462.000000	86.921	166.0720
468.000000	86.861	166.3841
475.000000	86.789	166.7980
482.000000	86.719	167.2451
487.000000	86.669	167.5695
494.000000	86.596	168.0452
500.000000	86.535	168.4868
508.000000	86.461	169.0953
515.000000	86.400	169.6194
522.000000	86.339	170.1445
530.000000	86.270	170.7709
538.000000	86.205	171.4237
545.000000	86.155	171.9984
552.000000	86.108	172.5692
560.000000	86.058	173.2053
570.000000	85.996	173.9718
580.000000	85.931	174.7390
590.000000	85.862	175.5300
600.000000	85.794	176.3609
608.000000	85.746	177.0436
615.000000	85.708	177.6443
622.000000	85.671	178.2580
630.000000	85.630	178.9920
640.000000	85.586	179.9449
650.000000	85.552	-179.0963
660.000000	85.534	-178.1603
670.000000	85.527	-177.3046
680.000000	85.519	-176.5327
690.000000	85.502	-175.7843
700.000000	85.479	-175.0110
710.000000	85.456	-174.2027
720.000000	85.438	-173.3809
730.000000	85.423	-172.5580
740.000000	85.410	-171.7305
750.000000	85.399	-170.8948
762.000000	85.389	-169.8804
775.000000	85.384	-168.7738
788.000000	85.386	-167.6660
800.000000	85.397	-166.6308
812.000000	85.418	-165.5857
825.000000	85.456	-164.5027
838.000000	85.499	-163.5320
850.000000	85.533	-162.7092
862.000000	85.560	-161.8980
875.000000	85.584	-160.9995
885.000000	85.606	-160.2940
900.000000	85.643	-159.2346
912.000000	85.676	-158.3881
925.000000	85.717	-157.4779
938.000000	85.765	-156.5939
950.000000	85.812	-155.8117
962.000000	85.859	-155.0552
975.000000	85.911	-154.2505
988.000000	85.966	-153.4537
1000.000000	86.017	-152.7177
1015.000000	86.084	-151.7813
1030.000000	86.161	-150.8459
1044.000000	86.246	-150.0324
1060.000000	86.348	-149.2286
1075.000000	86.439	-148.5693
1090.000000	86.526	-147.9504
1106.000000	86.618	-147.3158
1120.000000	86.696	-146.7788
1138.000000	86.792	-146.1031
1150.000000	86.851	-145.6545
1172.000000	86.955	-144.8194
1180.000000	86.994	-144.5093
1206.000000	87.137	-143.5428
1220.000000	87.219	-143.1027
1241.000000	87.333	-142.5336
1250.000000	87.377	-142.3007
1265.000000	87.443	-141.9078
1280.000000	87.504	-141.5043
1315.000000	87.639	-140.5348
1320.000000	87.658	-140.3979
1340.000000	87.731	-139.8576
1360.000000	87.797	-139.3046
1380.000000	87.858	-138.6970
1400.000000	87.921	-138.0073
1430.000000	88.042	-136.9141
1450.000000	88.133	-136.2359
1475.000000	88.249	-135.4192
1500.000000	88.370	-134.5632
1525.000000	88.502	-133.6099
1550.000000	88.647	-132.5187
1575.000000	88.801	-131.3019
1600.000000	88.936	-130.0687
1625.000000	89.012	-128.9108
1650.000000	89.011	-127.8226
1675.000000	88.954	-126.7483
1700.000000	88.883	-125.6056
1725.000000	88.842	-124.3027
1750.000000	88.862	-122.7438
1775.000000	88.969	-120.8780
1800.000000	89.181	-118.7975
1825.000000	89.494	-116.7611
1850.000000	89.882	-115.0426
1875.000000	90.302	-113.7992
1900.000000	90.717	-113.0279
1925.000000	91.103	-112.5957
1950.000000	91.459	-112.3447
1975.000000	91.793	-112.1930
2000.000000	92.108	-112.1207
2030.000000	92.462	-112.0996
2060.000000	92.797	-112.1000
2090.000000	93.122	-112.1225
2120.000000	93.438	-112.1992
2140.000000	93.642	-112.2779
2180.000000	94.046	-112.4678
2200.000000	94.250	-112.5952
2240.000000	94.653	-112.9783
2270.000000	94.942	-113.3605
2300.000000	95.217	-113.7588
2330.000000	95.485	-114.1188
2360.000000	95.758	-114.4481
2400.000000	96.135	-114.9298
2430.000000	96.425	-115.3633
2470.000000	96.818	-116.0581
2500.000000	97.114	-116.6754
2540.000000	97.510	-117.6044
2580.000000	97.916	-118.6569
2620.000000	98.336	-119.9455
2650.000000	98.650	-121.1329
2690.000000	99.055	-123.0181
2720.000000	99.340	-124.6320
2760.000000	99.692	-127.0368
2800.000000	100.004	-129.7275
2850.000000	100.319	-133.4093
2900.000000	100.540	-137.2736
2950.000000	100.668	-141.0962
3000.000000	100.724	-144.7579
3040.000000	100.728	-147.5682
3070.000000	100.709	-149.5919
3110.000000	100.662	-152.1461
3150.000000	100.598	-154.5354
3200.000000	100.500	-157.3373
3250.000000	100.379	-159.9685
3300.000000	100.226	-162.4039
3350.000000	100.040	-164.5640
3400.000000	99.831	-166.4226
3450.000000	99.602	-167.9949
3500.000000	99.356	-169.2634
3550.000000	99.106	-170.2336
3600.000000	98.866	-170.9654
3650.000000	98.642	-171.5189
3700.000000	98.436	-171.9157
3750.000000	98.253	-172.1550
3820.000000	98.045	-172.2884
3870.000000	97.929	-172.2657
3950.000000	97.794	-172.0057
4000.000000	97.743	-171.7592
4060.000000	97.702	-171.4686
4120.000000	97.667	-171.2072
4180.000000	97.631	-170.9688
4250.000000	97.581	-170.7217
4310.000000	97.537	-170.5046
4370.000000	97.505	-170.2933
4440.000000	97.494	-170.1479
4500.000000	97.502	-170.1597
4550.000000	97.516	-170.2610
4620.000000	97.542	-170.5212
4680.000000	97.568	-170.8045
4750.000000	97.612	-171.1483
4820.000000	97.684	-171.5419
4870.000000	97.753	-171.9006
4940.000000	97.872	-172.5567
5000.000000	97.984	-173.2897
5080.000000	98.133	-174.5063
5150.000000	98.252	-175.7580
5220.000000	98.355	-177.1907
5300.000000	98.438	-179.0767
5380.000000	98.464	178.7940
5450.000000	98.424	176.8046
5520.000000	98.320	174.8171
5600.000000	98.135	172.6710
5700.000000	97.836	170.2565
5800.000000	97.491	168.1553
5900.000000	97.114	166.4030
6000.000000	96.718	165.0890
6080.000000	96.403	164.3585
6150.000000	96.135	163.9221
6220.000000	95.878	163.6443
6300.000000	95.596	163.5114
6400.000000	95.267	163.6324
6500.000000	94.973	164.0430
6600.000000	94.725	164.6579
6700.000000	94.523	165.4034
6800.000000	94.371	166.2529
6900.000000	94.277	167.1596
7000.000000	94.244	168.0247
7100.000000	94.270	168.7464
7200.000000	94.352	169.2527
7300.000000	94.495	169.4510
7400.000000	94.700	169.1952
7500.000000	94.950	168.3285
7620.000000	95.278	166.3002
7750.000000	95.609	162.6360
7880.000000	95.826	157.2124
8000.000000	95.834	150.7599
8120.000000	95.598	143.4387
8250.000000	95.035	135.3921
8380.000000	94.158	128.2128
8500.000000	93.115	123.0433
8620.000000	91.926	119.5213
8750.000000	90.562	117.4608
8850.000000	89.508	116.9593
9000.000000	87.983	117.6406
9120.000000	86.844	119.1189
9250.000000	85.699	121.3990
9380.000000	84.643	124.2272
9500.000000	83.747	127.2011
9620.000000	82.920	130.4337
9750.000000	82.094	134.1829
9880.000000	81.336	138.1461
10000.000000	80.695	141.9448
10150.000000	79.967	146.8546
10300.000000	79.313	151.9243
10440.000000	78.769	156.7546
10600.000000	78.218	162.3720
10750.000000	77.763	167.7122
10900.000000	77.363	173.0869
11060.000000	77.007	178.8535
11200.000000	76.763	-176.0884
11380.000000	76.538	-169.5952
11500.000000	76.439	-165.2748
11720.000000	76.359	-157.4076
11800.000000	76.363	-154.5686
12060.000000	76.510	-145.4375
12200.000000	76.680	-140.5962
12410.000000	77.063	-133.4643
12500.000000	77.276	-130.4745
12650.000000	77.699	-125.6027
12800.000000	78.214	-120.8980
13150.000000	79.829	-110.8832
13200.000000	80.111	-109.6047
13400.000000	81.376	-105.0591
13600.000000	82.852	-101.7766
13800.000000	84.510	-100.4489
14000.000000	86.257	-102.0223
14300.000000	88.608	-111.7809
14500.000000	89.668	-123.2004
14750.000000	90.203	-139.9487
15000.000000	89.982	-154.8470
15250.000000	89.413	-165.7451
15500.000000	88.921	-174.4713
15750.000000	88.633	175.2193
16000.000000	88.285	160.4205
16250.000000	87.437	141.9579
16500.000000	85.805	124.7462
16750.000000	83.422	113.5055
17000.000000	80.529	109.2439
17250.000000	77.414	110.3456
17500.000000	74.342	114.8389
17750.000000	71.507	121.3337
18000.000000	69.007	129.0110
18250.000000	66.846	137.4038
18500.000000	64.974	146.2867
18750.000000	63.323	155.5760
19000.000000	61.835	165.2223
19250.000000	60.473	175.1809
19500.000000	59.218	-174.6076
19750.000000	58.067	-164.2283
20000.000000	57.021	-153.8281
