* Measurement data measured by REW V5.20.4
* Source: Mic in at front panel (Pink) (Realtek(R) Audio), MICROPHONE (Master Volume), L, volume: 0.250
* Format: 256k Log Swept Sine, 1 sweep at -12.0 dBFS with no timing reference
* Dated: Mar 9, 2022 8:50:21 PM
* REW Settings:
*  C-weighting compensation: Off
*  Target level: 75.0 dB
* Note: Ola L
* Measurement: Ola L
* Smoothing: 1/12 octave
* Frequency Step: 1/48 octave
* Start Frequency: 20.000 Hz
*
* Freq(Hz)	SPL(dB)	Phase(degrees)
20.000000	96.931	73.1024
20.299999	97.026	72.4437
20.600000	97.120	71.7814
20.900000	97.210	71.1175
21.200001	97.299	70.4553
21.400000	97.356	70.0161
21.799999	97.469	69.1431
22.000000	97.523	68.7097
22.400000	97.628	67.8511
22.700001	97.702	67.2193
23.000000	97.773	66.6053
23.299999	97.840	66.0150
23.600000	97.906	65.4495
24.000000	97.993	64.7285
24.299999	98.058	64.2021
24.700001	98.146	63.5041
25.000000	98.210	62.9773
25.400000	98.293	62.2714
25.799999	98.371	61.5721
26.200001	98.444	60.8915
26.500000	98.497	60.3974
26.900000	98.566	59.7601
27.200001	98.617	59.2959
27.600000	98.685	58.6899
28.000000	98.752	58.0903
28.500000	98.835	57.3363
29.000000	98.911	56.5732
29.500000	98.980	55.8225
30.000000	99.042	55.1230
30.400000	99.091	54.6120
30.700001	99.131	54.2496
31.100000	99.189	53.7692
31.500000	99.250	53.2669
32.000000	99.324	52.5921
32.500000	99.390	51.8901
33.000000	99.447	51.2099
33.500000	99.499	50.5764
34.000000	99.553	49.9786
34.500000	99.608	49.3903
35.000000	99.662	48.7999
35.500000	99.713	48.2140
36.000000	99.761	47.6443
36.500000	99.808	47.0946
37.000000	99.854	46.5605
37.500000	99.899	46.0361
38.200001	99.960	45.3133
38.700001	100.001	44.8055
39.500000	100.063	44.0130
40.000000	100.100	43.5345
40.599998	100.142	42.9802
41.200001	100.183	42.4431
41.799999	100.224	41.9135
42.500000	100.271	41.2971
43.099998	100.307	40.7745
43.700001	100.342	40.2650
44.400002	100.380	39.6897
45.000000	100.411	39.2102
45.500000	100.437	38.8195
46.200001	100.472	38.2875
46.799999	100.502	37.8438
47.500000	100.537	37.3333
48.200001	100.571	36.8246
48.700001	100.594	36.4645
49.400002	100.625	35.9719
50.000000	100.650	35.5623
50.799999	100.683	35.0266
51.500000	100.710	34.5636
52.200001	100.734	34.1141
53.000000	100.761	33.6282
53.799999	100.788	33.1671
54.500000	100.813	32.7733
55.200001	100.839	32.3840
56.000000	100.870	31.9430
57.000000	100.909	31.3870
58.000000	100.946	30.8173
59.000000	100.980	30.2509
60.000000	101.009	29.7036
60.799999	101.031	29.2769
61.500000	101.048	28.9123
62.200001	101.063	28.5600
63.000000	101.079	28.1741
64.000000	101.098	27.7108
65.000000	101.116	27.2574
66.000000	101.133	26.8053
67.000000	101.149	26.3529
68.000000	101.162	25.9094
69.000000	101.175	25.4866
70.000000	101.189	25.0858
71.000000	101.205	24.7020
72.000000	101.221	24.3315
73.000000	101.238	23.9749
74.000000	101.254	23.6309
75.000000	101.270	23.2924
76.199997	101.288	22.8860
77.500000	101.306	22.4429
78.800003	101.325	21.9890
80.000000	101.343	21.5514
81.199997	101.360	21.0931
82.500000	101.375	20.5789
83.800003	101.383	20.0645
85.000000	101.384	19.6168
86.199997	101.380	19.2141
87.500000	101.375	18.8296
88.500000	101.371	18.5636
90.000000	101.367	18.1951
91.199997	101.367	17.9120
92.500000	101.369	17.6099
93.800003	101.371	17.3104
95.000000	101.373	17.0358
96.199997	101.374	16.7645
97.500000	101.373	16.4772
98.800003	101.371	16.2007
100.000000	101.369	15.9573
101.500000	101.367	15.6708
103.000000	101.369	15.4016
104.400002	101.373	15.1533
106.000000	101.380	14.8583
107.500000	101.385	14.5698
109.000000	101.389	14.2693
110.599998	101.391	13.9314
112.000000	101.391	13.6270
113.800003	101.384	13.2485
115.000000	101.374	13.0236
117.199997	101.350	12.7075
118.000000	101.341	12.6223
120.599998	101.322	12.3651
122.000000	101.317	12.2010
124.099998	101.312	11.9393
125.000000	101.312	11.8303
126.500000	101.312	11.6539
128.000000	101.312	11.4790
131.500000	101.306	11.0524
132.000000	101.304	10.9880
134.000000	101.299	10.7222
136.000000	101.294	10.4529
138.000000	101.287	10.1989
140.000000	101.279	9.9660
143.000000	101.265	9.6367
145.000000	101.254	9.4205
147.500000	101.237	9.1550
150.000000	101.217	8.9118
152.500000	101.192	8.7159
155.000000	101.169	8.5679
157.500000	101.151	8.4301
160.000000	101.137	8.2629
162.500000	101.124	8.0619
165.000000	101.108	7.8482
167.500000	101.089	7.6434
170.000000	101.065	7.4670
172.500000	101.040	7.3256
175.000000	101.018	7.2015
177.500000	100.999	7.0802
180.000000	100.983	6.9595
182.500000	100.969	6.8358
185.000000	100.955	6.7043
187.500000	100.937	6.5589
190.000000	100.917	6.4041
192.500000	100.896	6.2551
195.000000	100.876	6.1220
197.500000	100.857	6.0062
200.000000	100.841	5.9082
203.000000	100.824	5.8143
206.000000	100.808	5.7308
209.000000	100.792	5.6271
212.000000	100.769	5.4962
214.000000	100.749	5.4099
218.000000	100.704	5.2952
220.000000	100.681	5.2703
224.000000	100.644	5.2356
227.000000	100.618	5.1930
230.000000	100.593	5.1385
233.000000	100.566	5.0798
236.000000	100.536	5.0170
240.000000	100.493	4.9261
243.000000	100.456	4.8615
247.000000	100.398	4.8165
250.000000	100.349	4.8480
254.000000	100.285	5.0079
258.000000	100.232	5.2849
262.000000	100.193	5.6215
265.000000	100.168	5.8853
269.000000	100.140	6.2453
272.000000	100.133	6.5115
276.000000	100.145	6.8138
280.000000	100.172	7.0093
285.000000	100.211	7.0908
290.000000	100.243	7.0061
295.000000	100.252	6.8127
300.000000	100.237	6.6230
304.000000	100.214	6.5187
307.000000	100.195	6.4676
311.000000	100.169	6.4243
315.000000	100.140	6.4003
320.000000	100.100	6.4041
325.000000	100.058	6.4607
330.000000	100.020	6.5571
335.000000	99.985	6.6642
340.000000	99.951	6.7641
345.000000	99.915	6.8627
350.000000	99.877	6.9759
355.000000	99.839	7.1069
360.000000	99.801	7.2543
365.000000	99.764	7.4160
370.000000	99.726	7.5884
375.000000	99.688	7.7709
382.000000	99.638	8.0457
387.000000	99.603	8.2560
395.000000	99.549	8.6202
400.000000	99.517	8.8636
406.000000	99.480	9.1655
412.000000	99.445	9.4790
418.000000	99.411	9.8188
425.000000	99.376	10.2615
431.000000	99.356	10.6598
437.000000	99.346	11.0368
444.000000	99.343	11.4220
450.000000	99.344	11.6882
455.000000	99.344	11.8521
462.000000	99.333	12.0168
468.000000	99.312	12.1603
475.000000	99.281	12.3785
482.000000	99.248	12.6364
487.000000	99.224	12.8307
494.000000	99.186	13.1327
500.000000	99.155	13.4318
508.000000	99.120	13.8550
515.000000	99.091	14.2185
522.000000	99.061	14.5850
530.000000	99.025	15.0308
538.000000	98.994	15.4991
545.000000	98.971	15.9161
552.000000	98.950	16.3401
560.000000	98.930	16.8234
570.000000	98.904	17.4138
580.000000	98.877	18.0145
590.000000	98.850	18.6429
600.000000	98.825	19.3077
608.000000	98.809	19.8526
615.000000	98.796	20.3290
622.000000	98.783	20.8159
630.000000	98.770	21.4037
640.000000	98.762	22.1757
650.000000	98.764	22.9553
660.000000	98.780	23.7073
670.000000	98.803	24.3657
680.000000	98.820	24.9230
690.000000	98.821	25.4493
700.000000	98.808	26.0247
710.000000	98.789	26.7056
720.000000	98.777	27.4941
730.000000	98.779	28.3341
740.000000	98.794	29.1491
750.000000	98.816	29.9049
762.000000	98.840	30.7549
775.000000	98.860	31.6562
788.000000	98.872	32.5947
800.000000	98.877	33.5699
812.000000	98.890	34.7088
825.000000	98.935	36.0760
838.000000	99.021	37.4087
850.000000	99.123	38.4887
862.000000	99.230	39.4126
875.000000	99.341	40.2935
885.000000	99.422	40.9276
900.000000	99.539	41.8437
912.000000	99.631	42.5698
925.000000	99.733	43.3543
938.000000	99.840	44.1175
950.000000	99.941	44.7894
962.000000	100.044	45.4343
975.000000	100.158	46.1148
988.000000	100.273	46.7821
1000.000000	100.382	47.3919
1015.000000	100.524	48.1588
1030.000000	100.679	48.9084
1044.000000	100.837	49.5311
1060.000000	101.021	50.0958
1075.000000	101.186	50.5142
1090.000000	101.344	50.8810
1106.000000	101.507	51.2390
1120.000000	101.647	51.5292
1138.000000	101.824	51.8781
1150.000000	101.941	52.0986
1172.000000	102.155	52.4867
1180.000000	102.234	52.6238
1206.000000	102.506	52.9899
1220.000000	102.655	53.0840
1241.000000	102.866	53.1056
1250.000000	102.951	53.0939
1265.000000	103.087	53.0690
1280.000000	103.216	53.0463
1315.000000	103.510	53.0092
1320.000000	103.551	53.0015
1340.000000	103.717	52.9577
1360.000000	103.882	52.9093
1380.000000	104.050	52.8883
1400.000000	104.226	52.9158
1430.000000	104.514	52.9447
1450.000000	104.712	52.8599
1475.000000	104.949	52.6496
1500.000000	105.169	52.3818
1525.000000	105.365	52.0996
1550.000000	105.540	51.8306
1575.000000	105.709	51.5603
1600.000000	105.883	51.1958
1625.000000	106.050	50.6842
1650.000000	106.204	50.0720
1675.000000	106.346	49.4135
1700.000000	106.479	48.7265
1725.000000	106.602	48.0081
1750.000000	106.710	47.2808
1775.000000	106.807	46.5867
1800.000000	106.905	45.9214
1825.000000	107.007	45.2170
1850.000000	107.106	44.4340
1875.000000	107.200	43.5886
1900.000000	107.288	42.7177
1925.000000	107.377	41.8576
1950.000000	107.475	41.0199
1975.000000	107.584	40.1673
2000.000000	107.696	39.2509
2030.000000	107.821	38.0621
2060.000000	107.928	36.8176
2090.000000	108.016	35.5511
2120.000000	108.084	34.2859
2140.000000	108.117	33.4663
2180.000000	108.164	31.9333
2200.000000	108.183	31.2012
2240.000000	108.212	29.7284
2270.000000	108.221	28.6141
2300.000000	108.216	27.5317
2330.000000	108.203	26.5150
2360.000000	108.188	25.5461
2400.000000	108.167	24.2473
2430.000000	108.141	23.2500
2470.000000	108.089	21.9184
2500.000000	108.034	20.9451
2540.000000	107.940	19.7467
2580.000000	107.833	18.7065
2620.000000	107.723	17.7745
2650.000000	107.637	17.1215
2690.000000	107.514	16.3380
2720.000000	107.419	15.8406
2760.000000	107.296	15.2742
2800.000000	107.181	14.7535
2850.000000	107.037	14.1221
2900.000000	106.882	13.5366
2950.000000	106.715	13.0887
3000.000000	106.549	12.7973
3040.000000	106.420	12.6357
3070.000000	106.324	12.5583
3110.000000	106.197	12.5356
3150.000000	106.079	12.5955
3200.000000	105.946	12.7198
3250.000000	105.824	12.8424
3300.000000	105.702	12.9679
3350.000000	105.577	13.1575
3400.000000	105.457	13.4263
3450.000000	105.344	13.7607
3500.000000	105.237	14.1917
3550.000000	105.145	14.7239
3600.000000	105.073	15.2970
3650.000000	105.016	15.8488
3700.000000	104.964	16.3705
3750.000000	104.914	16.8961
3820.000000	104.846	17.6541
3870.000000	104.795	18.2288
3950.000000	104.722	19.2719
4000.000000	104.693	19.9584
4060.000000	104.674	20.7383
4120.000000	104.663	21.4604
4180.000000	104.658	22.1475
4250.000000	104.654	22.9277
4310.000000	104.652	23.6318
4370.000000	104.662	24.3747
4440.000000	104.694	25.2068
4500.000000	104.734	25.8375
4550.000000	104.773	26.3019
4620.000000	104.832	26.8647
4680.000000	104.883	27.3036
4750.000000	104.951	27.8110
4820.000000	105.036	28.2764
4870.000000	105.108	28.5417
4940.000000	105.218	28.7909
5000.000000	105.316	28.8814
5080.000000	105.440	28.8612
5150.000000	105.544	28.7659
5220.000000	105.652	28.5882
5300.000000	105.774	28.2195
5380.000000	105.884	27.6252
5450.000000	105.954	26.9252
5520.000000	105.988	26.1238
5600.000000	105.980	25.1836
5700.000000	105.891	24.1877
5800.000000	105.726	23.9369
5900.000000	105.619	25.0340
6000.000000	105.789	26.6973
6080.000000	106.106	27.1415
6150.000000	106.407	26.4297
6220.000000	106.633	24.7639
6300.000000	106.742	22.2999
6400.000000	106.692	19.4514
6500.000000	106.546	17.3272
6600.000000	106.383	15.7918
6700.000000	106.226	14.6233
6800.000000	106.083	13.7061
6900.000000	105.956	12.9636
7000.000000	105.846	12.3088
7100.000000	105.750	11.6804
7200.000000	105.667	11.0652
7300.000000	105.606	10.4441
7400.000000	105.572	9.7534
7500.000000	105.564	8.9222
7620.000000	105.589	7.6642
7750.000000	105.660	5.7975
7880.000000	105.753	3.0520
8000.000000	105.796	-0.5032
8120.000000	105.722	-5.0078
8250.000000	105.427	-10.5304
8380.000000	104.849	-15.7784
8500.000000	104.072	-19.3741
8620.000000	103.139	-21.1498
8750.000000	102.087	-20.9189
8850.000000	101.346	-19.4615
9000.000000	100.501	-16.0734
9120.000000	100.117	-13.2654
9250.000000	99.948	-10.9813
9380.000000	99.922	-9.9308
9500.000000	99.920	-10.1448
9620.000000	99.856	-11.3080
9750.000000	99.659	-13.1674
9880.000000	99.315	-15.0787
10000.000000	98.880	-16.4861
10150.000000	98.219	-17.4102
10300.000000	97.492	-17.2811
10440.000000	96.806	-16.3020
10600.000000	96.058	-14.3420
10750.000000	95.419	-11.8711
10900.000000	94.852	-8.9609
11060.000000	94.330	-5.4951
11200.000000	93.946	-2.2439
11380.000000	93.552	2.1379
11500.000000	93.350	5.1545
11720.000000	93.107	10.7955
11800.000000	93.059	12.8672
12060.000000	93.060	19.6108
12200.000000	93.166	23.2050
12410.000000	93.475	28.4891
12500.000000	93.669	30.6896
12650.000000	94.088	34.2343
12800.000000	94.645	37.5702
13150.000000	96.634	43.8675
13200.000000	97.008	44.4892
13400.000000	98.719	45.7475
13600.000000	100.648	43.9611
13800.000000	102.506	37.2562
14000.000000	103.919	24.1200
14300.000000	104.497	-4.7228
14500.000000	103.699	-23.1789
14750.000000	101.679	-38.3820
15000.000000	99.112	-44.6671
15250.000000	96.596	-45.2797
15500.000000	94.543	-43.1091
15750.000000	93.126	-39.9741
16000.000000	92.315	-37.0851
16250.000000	91.973	-35.3741
16500.000000	91.927	-35.5933
16750.000000	92.000	-38.2635
17000.000000	92.020	-43.5656
17250.000000	91.835	-51.2082
17500.000000	91.310	-60.1927
17750.000000	90.369	-68.8483
18000.000000	89.044	-75.6876
18250.000000	87.441	-80.0927
18500.000000	85.678	-82.1345
18750.000000	83.854	-82.1521
19000.000000	82.049	-80.6106
19250.000000	80.327	-78.0740
19500.000000	78.750	-75.1156
19750.000000	77.446	-72.3762
