* Measurement data measured by REW V5.20.4
* Source: Mic in at front panel (Pink) (Realtek(R) Audio), MICROPHONE (Master Volume), L, volume: 0.250
* Format: 256k Log Swept Sine, 1 sweep at -12.0 dBFS with no timing reference
* Dated: Jun 25, 2022 1:19:13 AM
* REW Settings:
*  C-weighting compensation: Off
*  Target level: 75.0 dB
* Note: Tangzu ShiminLi L Stock
* Measurement: Shimin LI Stock L
* Smoothing: 1/12 octave
* Frequency Step: 1/48 octave
* Start Frequency: 20.000 Hz
*
* Freq(Hz)	SPL(dB)	Phase(degrees)
20.000000	89.068	-134.5530
20.299999	89.161	-135.4109
20.600000	89.230	-136.3476
20.900000	89.276	-137.2753
21.200001	89.307	-138.1242
21.400000	89.327	-138.6375
21.799999	89.371	-139.5706
22.000000	89.398	-140.0124
22.400000	89.457	-140.8952
22.700001	89.499	-141.5681
23.000000	89.537	-142.2364
23.299999	89.568	-142.8761
23.600000	89.597	-143.4759
24.000000	89.635	-144.2182
24.299999	89.665	-144.7557
24.700001	89.707	-145.4844
25.000000	89.735	-146.0561
25.400000	89.765	-146.8504
25.799999	89.787	-147.6579
26.200001	89.801	-148.4509
26.500000	89.808	-149.0244
26.900000	89.813	-149.7529
27.200001	89.816	-150.2707
27.600000	89.820	-150.9276
28.000000	89.830	-151.5635
28.500000	89.852	-152.3695
29.000000	89.879	-153.2201
29.500000	89.899	-154.0973
30.000000	89.910	-154.9435
30.400000	89.915	-155.5708
30.700001	89.919	-156.0124
31.100000	89.926	-156.5742
31.500000	89.932	-157.1160
32.000000	89.937	-157.7773
32.500000	89.938	-158.4428
33.000000	89.934	-159.1499
33.500000	89.916	-159.9046
34.000000	89.877	-160.6294
34.500000	89.821	-161.1982
35.000000	89.770	-161.5572
35.500000	89.748	-161.7871
36.000000	89.758	-162.0347
36.500000	89.789	-162.3851
37.000000	89.827	-162.8322
37.500000	89.867	-163.3489
38.200001	89.924	-164.2261
38.700001	89.955	-164.9915
39.500000	89.965	-166.3106
40.000000	89.953	-167.0676
40.599998	89.937	-167.8637
41.200001	89.926	-168.5702
41.799999	89.919	-169.2077
42.500000	89.919	-169.8895
43.099998	89.927	-170.4847
43.700001	89.931	-171.1321
44.400002	89.917	-171.9074
45.000000	89.889	-172.5209
45.500000	89.860	-172.9805
46.200001	89.820	-173.5653
46.799999	89.785	-174.0364
47.500000	89.744	-174.5753
48.200001	89.698	-175.1005
48.700001	89.662	-175.4474
49.400002	89.617	-175.8804
50.000000	89.594	-176.2406
50.799999	89.585	-176.8153
51.500000	89.582	-177.4828
52.200001	89.558	-178.2828
53.000000	89.485	-179.1423
53.799999	89.388	-179.6556
54.500000	89.334	-179.8391
55.200001	89.323	179.9892
56.000000	89.335	179.6317
57.000000	89.342	179.0805
58.000000	89.344	178.6230
59.000000	89.354	178.1872
60.000000	89.350	177.6526
60.799999	89.322	177.1960
61.500000	89.281	176.8239
62.200001	89.234	176.4742
63.000000	89.181	176.0652
64.000000	89.125	175.4966
65.000000	89.086	174.8464
66.000000	89.068	174.1338
67.000000	89.068	173.4840
68.000000	89.088	173.0898
69.000000	89.144	173.0285
70.000000	89.248	173.1113
71.000000	89.367	172.8557
72.000000	89.394	172.0386
73.000000	89.266	171.1930
74.000000	89.044	170.8454
75.000000	88.827	170.8788
76.199997	88.643	170.9199
77.500000	88.540	170.5918
78.800003	88.500	169.9470
80.000000	88.492	169.3206
81.199997	88.490	168.7631
82.500000	88.472	168.2669
83.800003	88.425	167.8337
85.000000	88.354	167.4594
86.199997	88.267	167.1297
87.500000	88.175	166.8385
88.500000	88.116	166.6671
90.000000	88.056	166.4359
91.199997	88.020	166.1830
92.500000	87.974	165.8539
93.800003	87.919	165.5261
95.000000	87.866	165.2426
96.199997	87.813	164.9997
97.500000	87.760	164.7944
98.800003	87.712	164.6215
100.000000	87.667	164.4567
101.500000	87.604	164.2256
103.000000	87.533	163.9917
104.400002	87.463	163.8083
106.000000	87.384	163.6403
107.500000	87.313	163.4692
109.000000	87.241	163.2383
110.599998	87.164	162.9395
112.000000	87.105	162.6938
113.800003	87.049	162.5630
115.000000	87.030	162.7027
117.199997	87.053	163.4770
118.000000	87.080	163.8062
120.599998	87.115	164.0266
122.000000	87.012	163.5940
124.099998	86.766	162.8078
125.000000	86.677	162.4470
126.500000	86.589	161.8614
128.000000	86.577	161.5105
131.500000	86.701	162.8087
132.000000	86.723	163.1880
134.000000	86.778	164.4286
136.000000	86.679	164.6362
138.000000	86.391	164.4947
140.000000	86.112	164.7556
143.000000	86.011	165.1203
145.000000	86.101	164.8214
147.500000	86.248	163.8548
150.000000	86.312	162.9247
152.500000	86.237	162.6496
155.000000	86.089	162.7766
157.500000	85.936	162.7469
160.000000	85.806	162.6190
162.500000	85.719	162.4917
165.000000	85.662	162.2543
167.500000	85.604	162.0059
170.000000	85.532	161.9082
172.500000	85.443	161.8983
175.000000	85.338	161.8722
177.500000	85.229	161.8860
180.000000	85.142	161.9880
182.500000	85.083	162.1259
185.000000	85.042	162.2548
187.500000	85.008	162.3540
190.000000	84.974	162.4299
192.500000	84.935	162.5140
195.000000	84.890	162.6279
197.500000	84.837	162.7562
200.000000	84.780	162.8757
203.000000	84.714	163.0137
206.000000	84.654	163.1467
209.000000	84.601	163.2502
212.000000	84.547	163.3408
214.000000	84.505	163.4239
218.000000	84.406	163.7078
220.000000	84.354	163.8955
224.000000	84.268	164.2746
227.000000	84.216	164.5258
230.000000	84.170	164.7416
233.000000	84.124	164.9344
236.000000	84.077	165.1229
240.000000	84.012	165.3789
243.000000	83.961	165.5766
247.000000	83.890	165.8629
250.000000	83.836	166.1102
254.000000	83.772	166.4970
258.000000	83.720	166.9132
262.000000	83.675	167.2821
265.000000	83.638	167.5110
269.000000	83.587	167.7927
272.000000	83.549	168.0223
276.000000	83.502	168.3670
280.000000	83.459	168.7338
285.000000	83.418	169.1821
290.000000	83.389	169.5615
295.000000	83.354	169.8546
300.000000	83.309	170.1387
304.000000	83.272	170.3992
307.000000	83.244	170.6105
311.000000	83.208	170.8990
315.000000	83.169	171.1883
320.000000	83.116	171.5666
325.000000	83.066	171.9826
330.000000	83.022	172.4217
335.000000	82.981	172.8558
340.000000	82.941	173.2702
345.000000	82.902	173.6743
350.000000	82.866	174.0868
355.000000	82.835	174.5098
360.000000	82.804	174.9325
365.000000	82.771	175.3518
370.000000	82.737	175.7751
375.000000	82.704	176.2047
382.000000	82.664	176.8069
387.000000	82.638	177.2364
395.000000	82.600	177.9300
400.000000	82.577	178.3668
406.000000	82.549	178.8837
412.000000	82.521	179.3879
418.000000	82.493	179.8970
425.000000	82.465	-179.4769
431.000000	82.449	-178.9218
437.000000	82.439	-178.3766
444.000000	82.431	-177.7686
450.000000	82.427	-177.2859
455.000000	82.424	-176.9273
462.000000	82.414	-176.4791
468.000000	82.398	-176.0918
475.000000	82.377	-175.5956
482.000000	82.357	-175.0695
487.000000	82.342	-174.6901
494.000000	82.319	-174.1401
500.000000	82.301	-173.6389
508.000000	82.284	-172.9605
515.000000	82.273	-172.3852
522.000000	82.261	-171.8161
530.000000	82.247	-171.1464
538.000000	82.236	-170.4576
545.000000	82.229	-169.8552
552.000000	82.226	-169.2568
560.000000	82.224	-168.5861
570.000000	82.226	-167.7729
580.000000	82.225	-166.9610
590.000000	82.221	-166.1342
600.000000	82.217	-165.2816
608.000000	82.221	-164.5922
615.000000	82.227	-163.9952
622.000000	82.233	-163.3943
630.000000	82.239	-162.6827
640.000000	82.253	-161.7634
650.000000	82.276	-160.8413
660.000000	82.313	-159.9435
670.000000	82.361	-159.1253
680.000000	82.406	-158.3909
690.000000	82.441	-157.6820
700.000000	82.468	-156.9523
710.000000	82.496	-156.1916
720.000000	82.528	-155.4191
730.000000	82.562	-154.6455
740.000000	82.598	-153.8681
750.000000	82.636	-153.0862
762.000000	82.682	-152.1438
775.000000	82.738	-151.1200
788.000000	82.801	-150.0943
800.000000	82.867	-149.1345
812.000000	82.944	-148.1657
825.000000	83.041	-147.1687
838.000000	83.143	-146.2900
850.000000	83.230	-145.5592
862.000000	83.308	-144.8469
875.000000	83.389	-144.0611
885.000000	83.453	-143.4455
900.000000	83.554	-142.5250
912.000000	83.637	-141.7909
925.000000	83.731	-141.0019
938.000000	83.831	-140.2394
950.000000	83.925	-139.5707
962.000000	84.019	-138.9296
975.000000	84.122	-138.2517
988.000000	84.226	-137.5823
1000.000000	84.323	-136.9640
1015.000000	84.446	-136.1740
1030.000000	84.578	-135.3823
1044.000000	84.712	-134.6982
1060.000000	84.868	-134.0323
1075.000000	85.008	-133.4827
1090.000000	85.143	-132.9401
1106.000000	85.288	-132.3358
1120.000000	85.421	-131.7783
1138.000000	85.601	-131.0322
1150.000000	85.730	-130.5408
1172.000000	85.987	-129.7424
1180.000000	86.086	-129.5034
1206.000000	86.418	-128.9824
1220.000000	86.591	-128.8750
1241.000000	86.828	-128.8513
1250.000000	86.921	-128.8586
1265.000000	87.066	-128.8731
1280.000000	87.205	-128.8968
1315.000000	87.496	-129.0773
1320.000000	87.531	-129.1139
1340.000000	87.652	-129.1939
1360.000000	87.757	-129.0395
1380.000000	87.875	-128.6290
1400.000000	88.028	-128.0843
1430.000000	88.323	-127.3454
1450.000000	88.543	-127.0309
1475.000000	88.827	-126.7970
1500.000000	89.122	-126.6528
1525.000000	89.429	-126.5385
1550.000000	89.749	-126.4206
1575.000000	90.069	-126.3123
1600.000000	90.359	-126.3056
1625.000000	90.576	-126.4553
1650.000000	90.709	-126.7189
1675.000000	90.788	-127.0459
1700.000000	90.863	-127.4205
1725.000000	90.971	-127.8436
1750.000000	91.128	-128.2866
1775.000000	91.333	-128.7002
1800.000000	91.583	-129.0887
1825.000000	91.864	-129.5380
1850.000000	92.162	-130.1267
1875.000000	92.465	-130.8900
1900.000000	92.761	-131.8313
1925.000000	93.043	-132.9211
1950.000000	93.309	-134.1224
1975.000000	93.560	-135.4361
2000.000000	93.792	-136.8843
2030.000000	94.035	-138.7881
2060.000000	94.230	-140.8153
2090.000000	94.372	-142.8843
2120.000000	94.457	-144.8752
2140.000000	94.485	-146.0744
2180.000000	94.512	-147.9803
2200.000000	94.534	-148.6902
2240.000000	94.635	-149.8531
2270.000000	94.765	-150.7606
2300.000000	94.922	-151.9060
2330.000000	95.075	-153.3511
2360.000000	95.203	-155.0489
2400.000000	95.314	-157.5143
2430.000000	95.356	-159.3540
2470.000000	95.375	-161.6785
2500.000000	95.373	-163.3451
2540.000000	95.348	-165.5043
2580.000000	95.294	-167.5867
2620.000000	95.211	-169.5752
2650.000000	95.127	-170.9626
2690.000000	94.990	-172.5820
2720.000000	94.880	-173.5858
2760.000000	94.740	-174.6880
2800.000000	94.618	-175.6335
2850.000000	94.486	-176.7171
2900.000000	94.363	-177.7250
2950.000000	94.239	-178.5923
3000.000000	94.125	-179.3052
3040.000000	94.047	-179.8056
3070.000000	93.997	179.8587
3110.000000	93.947	179.4771
3150.000000	93.922	179.1468
3200.000000	93.928	178.7148
3250.000000	93.967	178.1781
3300.000000	94.023	177.5108
3350.000000	94.087	176.7419
3400.000000	94.156	175.8636
3450.000000	94.221	174.8572
3500.000000	94.280	173.7558
3550.000000	94.341	172.5536
3600.000000	94.410	171.1678
3650.000000	94.482	169.5209
3700.000000	94.543	167.6124
3750.000000	94.588	165.5027
3820.000000	94.625	162.2695
3870.000000	94.627	159.7849
3950.000000	94.577	155.5779
4000.000000	94.500	152.8026
4060.000000	94.340	149.3465
4120.000000	94.085	145.8784
4180.000000	93.729	142.5676
4250.000000	93.195	139.0912
4310.000000	92.650	136.5934
4370.000000	92.055	134.5949
4440.000000	91.331	132.8289
4500.000000	90.702	131.7391
4550.000000	90.177	131.1140
4620.000000	89.447	130.6504
4680.000000	88.832	130.6402
4750.000000	88.139	131.0747
4820.000000	87.491	131.8950
4870.000000	87.062	132.6465
4940.000000	86.504	133.8700
5000.000000	86.061	135.0494
5080.000000	85.506	136.8244
5150.000000	85.050	138.6074
5220.000000	84.624	140.5855
5300.000000	84.174	143.0170
5380.000000	83.757	145.5639
5450.000000	83.413	147.8389
5520.000000	83.082	150.1397
5600.000000	82.717	152.8033
5700.000000	82.291	156.2101
5800.000000	81.912	159.6998
5900.000000	81.586	163.2578
6000.000000	81.314	166.9287
6080.000000	81.141	169.9396
6150.000000	81.025	172.5973
6220.000000	80.940	175.2482
6300.000000	80.876	178.2651
6400.000000	80.845	-177.9565
6500.000000	80.873	-174.1729
6600.000000	80.965	-170.4377
6700.000000	81.118	-166.7918
6800.000000	81.335	-163.2284
6900.000000	81.624	-159.7634
7000.000000	81.993	-156.4706
7100.000000	82.442	-153.4315
7200.000000	82.980	-150.7063
7300.000000	83.625	-148.3935
7400.000000	84.387	-146.6798
7500.000000	85.256	-145.8164
7620.000000	86.405	-146.3274
7750.000000	87.674	-149.5367
7880.000000	88.776	-156.3853
8000.000000	89.441	-166.0656
8120.000000	89.616	-177.8888
8250.000000	89.192	169.2288
8380.000000	88.198	158.7349
8500.000000	86.926	152.2948
8620.000000	85.496	148.8834
8750.000000	83.943	147.8524
8850.000000	82.825	148.4272
9000.000000	81.341	150.8058
9120.000000	80.339	153.5564
9250.000000	79.421	157.0550
9380.000000	78.654	160.9086
9500.000000	78.065	164.6497
9620.000000	77.574	168.4790
9750.000000	77.133	172.7003
9880.000000	76.778	176.9993
10000.000000	76.520	-178.9445
10150.000000	76.294	-173.6420
10300.000000	76.211	-167.9332
10440.000000	76.342	-162.2399
10600.000000	76.859	-155.6179
10750.000000	77.772	-150.0455
10900.000000	79.055	-146.1644
11060.000000	80.657	-145.1853
11200.000000	82.043	-148.0784
11380.000000	83.446	-157.9742
11500.000000	83.961	-168.0829
11720.000000	83.768	170.6852
11800.000000	83.332	163.7542
12060.000000	80.914	149.1866
12200.000000	79.254	146.4449
12410.000000	76.718	147.0351
12500.000000	75.698	148.4426
12650.000000	74.147	151.7599
12800.000000	72.804	155.8958
13150.000000	70.416	167.2403
13200.000000	70.147	168.9745
13400.000000	69.209	176.0607
13600.000000	68.450	-176.7113
13800.000000	67.841	-169.4472
14000.000000	67.403	-162.2222
14300.000000	67.197	-151.6140
14500.000000	67.414	-144.8272
14750.000000	68.086	-136.9142
15000.000000	69.176	-130.0579
15250.000000	70.613	-125.1488
15500.000000	72.216	-123.8736
15750.000000	73.660	-128.4864
16000.000000	74.552	-140.2381
16250.000000	74.565	-156.7164
16500.000000	73.631	-172.0230
16750.000000	71.992	178.4541
17000.000000	70.047	175.1370
17250.000000	68.191	175.9949
17500.000000	66.715	178.7724
17750.000000	65.737	-178.3139
18000.000000	65.194	-176.6831
18250.000000	64.902	-177.4520
18500.000000	64.605	178.8821
18750.000000	64.054	172.8688
19000.000000	63.076	166.1704
19250.000000	61.604	160.9601
19500.000000	59.668	158.9467
19750.000000	57.362	160.8589
20000.000000	54.804	166.5433
