* Measurement data measured by REW V5.20
* Source: Mic in at front panel (Pink) (Realtek(R) Audio), MICROPHONE (Master Volume), L, volume: 0.250
* Format: 256k Log Swept Sine, 1 sweep at -12.0 dBFS with no timing reference
* Dated: Nov 18, 2021 12:02:15 AM
* REW Settings:
*  C-weighting compensation: Off
*  Target level: 75.0 dB
* Note: Thieaudio L2
* Measurement: edx L Nov 18
* Smoothing: 1/12 octave
* Frequency Step: 1/48 octave
* Start Frequency: 20.000 Hz
*
* Freq(Hz)	SPL(dB)	Phase(degrees)
20.000000	107.7	-171.7441
20.299999	107.6	-172.4844
20.600000	107.6	-173.2117
20.900000	107.6	-173.9263
21.200001	107.6	-174.6285
21.400000	107.6	-175.0896
21.799999	107.6	-175.9956
22.000000	107.6	-176.4408
22.400000	107.5	-177.3162
22.700001	107.5	-177.9599
23.000000	107.5	-178.5926
23.299999	107.5	-179.2143
23.600000	107.5	-179.8255
24.000000	107.4	179.3753
24.299999	107.4	178.7870
24.700001	107.4	178.0171
25.000000	107.4	177.4503
25.400000	107.3	176.7092
25.799999	107.3	175.9844
26.200001	107.3	175.2753
26.500000	107.3	174.7530
26.900000	107.2	174.0683
27.200001	107.2	173.5630
27.600000	107.2	172.9001
28.000000	107.1	172.2498
28.500000	107.1	171.4557
29.000000	107.1	170.6845
29.500000	107.0	169.9376
30.000000	107.0	169.2141
30.400000	107.0	168.6501
30.700001	106.9	168.2343
31.100000	106.9	167.6877
31.500000	106.9	167.1479
32.000000	106.8	166.4798
32.500000	106.8	165.8162
33.000000	106.8	165.1559
33.500000	106.7	164.5004
34.000000	106.7	163.8538
34.500000	106.7	163.2209
35.000000	106.6	162.6049
35.500000	106.6	162.0067
36.000000	106.5	161.4246
36.500000	106.5	160.8555
37.000000	106.5	160.2958
37.500000	106.4	159.7424
38.200001	106.4	158.9771
38.700001	106.3	158.4384
39.500000	106.3	157.5950
40.000000	106.2	157.0815
40.599998	106.2	156.4819
41.200001	106.1	155.9030
41.799999	106.1	155.3451
42.500000	106.0	154.7172
43.099998	106.0	154.1951
43.700001	106.0	153.6862
44.400002	105.9	153.1080
45.000000	105.9	152.6241
45.500000	105.8	152.2272
46.200001	105.8	151.6768
46.799999	105.7	151.2043
47.500000	105.7	150.6461
48.200001	105.7	150.0793
48.700001	105.6	149.6716
49.400002	105.6	149.1024
50.000000	105.5	148.6217
50.799999	105.5	147.9964
51.500000	105.4	147.4643
52.200001	105.4	146.9489
53.000000	105.3	146.3891
53.799999	105.3	145.8601
54.500000	105.3	145.4075
55.200001	105.2	144.9513
56.000000	105.2	144.4217
57.000000	105.1	143.7510
58.000000	105.1	143.0722
59.000000	105.0	142.3928
60.000000	105.0	141.7263
60.799999	104.9	141.2054
61.500000	104.9	140.7579
62.200001	104.8	140.3181
63.000000	104.8	139.8244
64.000000	104.7	139.2184
65.000000	104.7	138.6220
66.000000	104.6	138.0346
67.000000	104.5	137.4635
68.000000	104.5	136.9185
69.000000	104.4	136.3951
70.000000	104.4	135.8864
71.000000	104.3	135.3925
72.000000	104.3	134.9092
73.000000	104.2	134.4276
74.000000	104.2	133.9438
75.000000	104.1	133.4597
76.199997	104.1	132.8794
77.500000	104.0	132.2464
78.800003	104.0	131.6046
80.000000	103.9	131.0013
81.199997	103.9	130.3814
82.500000	103.8	129.6931
83.800003	103.8	129.0065
85.000000	103.7	128.3942
86.199997	103.6	127.8149
87.500000	103.6	127.2263
88.500000	103.5	126.7972
90.000000	103.4	126.1840
91.199997	103.4	125.7135
92.500000	103.3	125.2170
93.800003	103.3	124.7283
95.000000	103.2	124.2809
96.199997	103.2	123.8338
97.500000	103.1	123.3481
98.800003	103.1	122.8638
100.000000	103.0	122.4226
101.500000	103.0	121.8866
103.000000	102.9	121.3685
104.400002	102.9	120.8889
106.000000	102.8	120.3244
107.500000	102.8	119.7709
109.000000	102.7	119.2059
110.599998	102.7	118.6052
112.000000	102.6	118.0804
113.800003	102.6	117.3874
115.000000	102.5	116.9018
117.199997	102.4	115.9951
118.000000	102.4	115.6880
120.599998	102.3	114.9039
122.000000	102.3	114.5862
124.099998	102.2	114.1036
125.000000	102.2	113.8803
126.500000	102.2	113.4851
128.000000	102.1	113.0626
131.500000	102.1	111.9917
132.000000	102.0	111.8333
134.000000	102.0	111.2026
136.000000	101.9	110.5887
138.000000	101.9	109.9913
140.000000	101.8	109.3972
143.000000	101.8	108.4987
145.000000	101.7	107.9085
147.500000	101.6	107.1955
150.000000	101.6	106.5208
152.500000	101.5	105.8824
155.000000	101.4	105.2651
157.500000	101.4	104.6623
160.000000	101.3	104.0579
162.500000	101.3	103.4384
165.000000	101.2	102.8154
167.500000	101.2	102.2193
170.000000	101.1	101.6754
172.500000	101.0	101.1962
175.000000	101.0	100.7808
177.500000	100.9	100.4170
180.000000	100.8	100.0846
182.500000	100.8	99.7452
185.000000	100.8	99.3578
187.500000	100.8	98.9266
190.000000	100.8	98.4777
192.500000	100.8	98.0294
195.000000	100.9	97.5666
197.500000	100.9	97.0519
200.000000	100.9	96.4782
203.000000	100.8	95.7283
206.000000	100.8	94.9539
209.000000	100.8	94.1850
212.000000	100.8	93.4101
214.000000	100.7	92.8922
218.000000	100.7	91.9026
220.000000	100.7	91.4369
224.000000	100.6	90.5267
227.000000	100.6	89.8433
230.000000	100.6	89.1579
233.000000	100.5	88.4754
236.000000	100.5	87.8001
240.000000	100.5	86.9141
243.000000	100.4	86.2672
247.000000	100.4	85.4515
250.000000	100.3	84.8925
254.000000	100.3	84.2257
258.000000	100.2	83.6036
262.000000	100.2	82.9492
265.000000	100.2	82.4302
269.000000	100.1	81.7463
272.000000	100.1	81.2658
276.000000	100.1	80.6717
280.000000	100.0	80.1124
285.000000	100.0	79.4217
290.000000	100.0	78.6705
295.000000	100.0	77.8355
300.000000	99.9	76.9971
304.000000	99.9	76.3684
307.000000	99.9	75.9212
311.000000	99.8	75.3459
315.000000	99.8	74.7886
320.000000	99.8	74.1313
325.000000	99.7	73.5322
330.000000	99.7	72.9721
335.000000	99.6	72.4224
340.000000	99.6	71.8691
345.000000	99.6	71.3210
350.000000	99.5	70.7957
355.000000	99.5	70.2997
360.000000	99.5	69.8317
365.000000	99.4	69.3911
370.000000	99.4	68.9803
375.000000	99.4	68.5996
382.000000	99.3	68.1099
387.000000	99.3	67.7796
395.000000	99.3	67.2454
400.000000	99.3	66.8793
406.000000	99.3	66.3835
412.000000	99.3	65.8298
418.000000	99.3	65.2592
425.000000	99.3	64.6324
431.000000	99.3	64.1425
437.000000	99.2	63.6798
444.000000	99.2	63.1577
450.000000	99.2	62.7047
455.000000	99.2	62.3027
462.000000	99.2	61.7129
468.000000	99.1	61.2346
475.000000	99.1	60.7466
482.000000	99.1	60.3111
487.000000	99.0	60.0163
494.000000	99.0	59.6398
500.000000	99.0	59.3625
508.000000	98.9	59.0217
515.000000	98.9	58.7195
522.000000	98.9	58.4241
530.000000	98.9	58.1250
538.000000	98.8	57.8648
545.000000	98.8	57.6498
552.000000	98.8	57.4412
560.000000	98.8	57.2004
570.000000	98.7	56.8904
580.000000	98.7	56.6085
590.000000	98.7	56.3930
600.000000	98.6	56.2661
608.000000	98.6	56.2147
615.000000	98.6	56.1936
622.000000	98.5	56.2027
630.000000	98.5	56.2666
640.000000	98.5	56.4142
650.000000	98.5	56.6020
660.000000	98.5	56.7956
670.000000	98.5	56.9306
680.000000	98.5	56.9998
690.000000	98.5	57.0614
700.000000	98.5	57.1598
710.000000	98.5	57.3013
720.000000	98.5	57.4641
730.000000	98.5	57.6363
740.000000	98.6	57.8206
750.000000	98.6	58.0204
762.000000	98.6	58.2829
775.000000	98.6	58.5913
788.000000	98.7	58.9198
800.000000	98.7	59.2515
812.000000	98.7	59.6068
825.000000	98.8	59.9568
838.000000	98.9	60.2096
850.000000	99.0	60.3854
862.000000	99.0	60.5645
875.000000	99.1	60.7945
885.000000	99.1	60.9969
900.000000	99.2	61.3189
912.000000	99.2	61.5906
925.000000	99.3	61.8926
938.000000	99.4	62.1812
950.000000	99.5	62.4221
962.000000	99.6	62.6445
975.000000	99.6	62.8786
988.000000	99.7	63.1129
1000.000000	99.8	63.3349
1015.000000	99.9	63.6336
1030.000000	100.0	63.9336
1044.000000	100.2	64.1519
1060.000000	100.3	64.2712
1075.000000	100.5	64.2894
1090.000000	100.6	64.2731
1106.000000	100.7	64.2400
1120.000000	100.8	64.2014
1138.000000	101.0	64.1465
1150.000000	101.1	64.1111
1172.000000	101.2	64.0588
1180.000000	101.3	64.0444
1206.000000	101.5	63.9407
1220.000000	101.7	63.7933
1241.000000	101.8	63.4696
1250.000000	101.9	63.3176
1265.000000	102.0	63.0691
1280.000000	102.1	62.8347
1315.000000	102.4	62.3409
1320.000000	102.4	62.2720
1340.000000	102.5	61.9942
1360.000000	102.7	61.7300
1380.000000	102.8	61.5123
1400.000000	102.9	61.3621
1430.000000	103.2	61.1567
1450.000000	103.4	60.9354
1475.000000	103.6	60.5789
1500.000000	103.7	60.1929
1525.000000	103.9	59.8174
1550.000000	104.0	59.4770
1575.000000	104.2	59.1546
1600.000000	104.3	58.7555
1625.000000	104.5	58.2324
1650.000000	104.6	57.6396
1675.000000	104.7	57.0351
1700.000000	104.8	56.4355
1725.000000	104.9	55.8362
1750.000000	105.0	55.2585
1775.000000	105.1	54.7422
1800.000000	105.2	54.2790
1825.000000	105.3	53.7966
1850.000000	105.4	53.2531
1875.000000	105.4	52.6638
1900.000000	105.5	52.0637
1925.000000	105.6	51.4850
1950.000000	105.8	50.9340
1975.000000	105.9	50.3679
2000.000000	106.0	49.7338
2030.000000	106.2	48.8777
2060.000000	106.3	47.9630
2090.000000	106.5	47.0273
2120.000000	106.6	46.0993
2140.000000	106.6	45.5121
2180.000000	106.8	44.4764
2200.000000	106.8	44.0151
2240.000000	106.9	43.1354
2270.000000	107.0	42.4972
2300.000000	107.1	41.8723
2330.000000	107.3	41.2233
2360.000000	107.4	40.4599
2400.000000	107.6	39.1235
2430.000000	107.7	37.8878
2470.000000	107.9	36.0540
2500.000000	107.9	34.6308
2540.000000	108.0	32.7948
2580.000000	108.0	31.1003
2620.000000	108.0	29.5010
2650.000000	108.0	28.3378
2690.000000	108.0	26.8608
2720.000000	107.9	25.8334
2760.000000	107.9	24.5472
2800.000000	107.9	23.2926
2850.000000	107.8	21.7263
2900.000000	107.7	20.1918
2950.000000	107.6	18.7887
3000.000000	107.5	17.5482
3040.000000	107.4	16.6409
3070.000000	107.4	16.0156
3110.000000	107.3	15.2787
3150.000000	107.2	14.6392
3200.000000	107.1	13.9007
3250.000000	107.0	13.1624
3300.000000	106.9	12.4236
3350.000000	106.8	11.7486
3400.000000	106.7	11.1610
3450.000000	106.6	10.6610
3500.000000	106.4	10.2966
3550.000000	106.3	10.0939
3600.000000	106.2	10.0214
3650.000000	106.1	10.0520
3700.000000	106.0	10.2055
3750.000000	105.9	10.5233
3820.000000	105.8	11.2260
3870.000000	105.8	11.8806
3950.000000	105.8	13.1055
4000.000000	105.9	13.8198
4060.000000	106.1	14.4071
4120.000000	106.3	14.5858
4180.000000	106.5	14.3234
4250.000000	106.7	13.4806
4310.000000	106.9	12.3889
4370.000000	107.0	11.0142
4440.000000	107.2	9.0493
4500.000000	107.2	7.0782
4550.000000	107.3	5.2820
4620.000000	107.2	2.6176
4680.000000	107.2	0.3046
4750.000000	107.0	-2.2878
4820.000000	106.8	-4.7023
4870.000000	106.6	-6.3032
4940.000000	106.3	-8.3337
5000.000000	106.0	-9.8481
5080.000000	105.6	-11.4782
5150.000000	105.2	-12.4901
5220.000000	104.8	-13.1436
5300.000000	104.3	-13.5351
5380.000000	103.9	-13.6140
5450.000000	103.5	-13.4420
5520.000000	103.1	-13.0143
5600.000000	102.7	-12.2000
5700.000000	102.2	-10.7780
5800.000000	101.7	-9.0393
5900.000000	101.3	-7.0443
6000.000000	100.9	-4.7618
6080.000000	100.7	-2.7520
6150.000000	100.5	-0.9039
6220.000000	100.3	0.9908
6300.000000	100.2	3.2007
6400.000000	100.1	6.0414
6500.000000	100.0	8.9457
6600.000000	100.0	11.8373
6700.000000	100.1	14.6511
6800.000000	100.2	17.3680
6900.000000	100.4	19.9464
7000.000000	100.7	22.2869
7100.000000	101.1	24.2656
7200.000000	101.6	25.7412
7300.000000	102.1	26.5070
7400.000000	102.7	26.2866
7500.000000	103.3	24.8502
7620.000000	103.9	21.4948
7750.000000	104.3	16.2389
7880.000000	104.5	9.7869
8000.000000	104.4	3.2067
8120.000000	104.0	-3.1210
8250.000000	103.2	-8.3844
8380.000000	102.1	-10.9163
8500.000000	101.0	-10.4363
8620.000000	99.9	-7.4004
8750.000000	99.0	-1.7960
8850.000000	98.7	3.6147
9000.000000	98.8	12.2509
9120.000000	99.4	18.3492
9250.000000	100.5	22.9458
9380.000000	101.7	24.7360
9500.000000	102.9	23.6322
9620.000000	103.9	19.9615
9750.000000	104.9	13.4548
9880.000000	105.6	4.7230
10000.000000	106.0	-5.0056
10150.000000	106.0	-18.7441
10300.000000	105.6	-32.8539
10440.000000	104.7	-44.6957
10600.000000	103.2	-54.9993
10750.000000	101.5	-60.9417
10900.000000	99.6	-63.6146
11060.000000	97.5	-63.6400
11200.000000	95.8	-61.9308
11380.000000	93.8	-58.1171
11500.000000	92.6	-54.8620
11720.000000	90.7	-47.9274
11800.000000	90.1	-45.1837
12060.000000	88.4	-35.7471
12200.000000	87.7	-30.4637
12410.000000	86.8	-22.4249
12500.000000	86.5	-18.9777
12650.000000	86.1	-13.2743
12800.000000	85.8	-7.6663
13150.000000	85.6	4.7070
13200.000000	85.6	6.3548
13400.000000	85.8	12.5023
13600.000000	86.1	17.7114
13800.000000	86.7	21.5710
14000.000000	87.3	23.5972
14300.000000	88.1	22.4780
14500.000000	88.4	19.1973
14750.000000	88.4	13.6709
15000.000000	88.0	8.5782
15250.000000	87.3	5.3119
15500.000000	86.7	3.6841
15750.000000	86.4	1.9604
16000.000000	86.5	-2.5449
16250.000000	86.5	-11.9265
16500.000000	85.9	-24.9160
16750.000000	84.4	-35.8757
17000.000000	82.0	-39.4550
17250.000000	79.1	-35.0615
17500.000000	76.0	-24.8787
17750.000000	73.5	-11.6584
18000.000000	72.1	1.3165
18250.000000	72.0	10.4227
18500.000000	72.5	12.9732
18750.000000	72.8	8.7869
19000.000000	72.5	0.5654
19250.000000	71.6	-7.7885
19500.000000	70.0	-13.6888
19750.000000	68.3	-16.8006
