* Measurement data measured by REW V5.20.13
* Source: EXCL: Mic in at front panel (Pink) (Realtek(R) Audio), MICROPHONE (Master Volume), L, volume: 0.250
* Format: 256k Log Swept Sine, 1 sweep at -12.0 dBFS with no timing reference
* Dated: Dec 22, 2022 1:03:20 PM
* REW Settings:
*  C-weighting compensation: Off
*  Target level: 75.0 dB
* Note: Tinhifi C3 L
* Measurement: Tinhifi C3 L
* Smoothing: 1/12 octave
* Frequency Step: 1/48 octave
* Start Frequency: 20.000 Hz
*
* Freq(Hz)	SPL(dB)	Phase(degrees)
20.000000	97.413	-160.2194
20.299999	97.418	-160.9780
20.600000	97.423	-161.7654
20.900000	97.427	-162.5712
21.200001	97.427	-163.3710
21.400000	97.425	-163.8839
21.799999	97.417	-164.8383
22.000000	97.414	-165.2730
22.400000	97.412	-166.0601
22.700001	97.416	-166.5982
23.000000	97.425	-167.1149
23.299999	97.436	-167.6243
23.600000	97.445	-168.1293
24.000000	97.452	-168.7861
24.299999	97.452	-169.2508
24.700001	97.445	-169.8162
25.000000	97.439	-170.1985
25.400000	97.431	-170.6681
25.799999	97.426	-171.1258
26.200001	97.424	-171.6072
26.500000	97.423	-171.9977
26.900000	97.419	-172.5618
27.200001	97.414	-173.0130
27.600000	97.401	-173.6398
28.000000	97.384	-174.2780
28.500000	97.359	-175.0671
29.000000	97.334	-175.8306
29.500000	97.311	-176.5687
30.000000	97.293	-177.2895
30.400000	97.279	-177.8531
30.700001	97.269	-178.2635
31.100000	97.256	-178.7856
31.500000	97.243	-179.2749
32.000000	97.230	-179.8487
32.500000	97.220	179.5943
33.000000	97.208	179.0335
33.500000	97.189	178.4735
34.000000	97.164	177.9361
34.500000	97.135	177.4339
35.000000	97.105	176.9573
35.500000	97.076	176.4852
36.000000	97.046	176.0056
36.500000	97.015	175.5222
37.000000	96.984	175.0434
37.500000	96.953	174.5714
38.200001	96.912	173.9156
38.700001	96.883	173.4506
39.500000	96.837	172.7285
40.000000	96.809	172.2977
40.599998	96.775	171.7990
41.200001	96.741	171.3129
41.799999	96.706	170.8362
42.500000	96.663	170.2971
43.099998	96.624	169.8553
43.700001	96.585	169.4303
44.400002	96.541	168.9451
45.000000	96.503	168.5335
45.500000	96.471	168.1961
46.200001	96.425	167.7377
46.799999	96.387	167.3582
47.500000	96.342	166.9285
48.200001	96.298	166.5125
48.700001	96.266	166.2230
49.400002	96.222	165.8280
50.000000	96.183	165.5026
50.799999	96.133	165.0927
51.500000	96.091	164.7453
52.200001	96.052	164.3914
53.000000	96.005	163.9793
53.799999	95.954	163.5764
54.500000	95.907	163.2386
55.200001	95.859	162.9167
56.000000	95.803	162.5673
57.000000	95.736	162.1360
58.000000	95.671	161.6894
59.000000	95.608	161.2497
60.000000	95.552	160.8311
60.799999	95.510	160.5035
61.500000	95.473	160.2254
62.200001	95.433	159.9655
63.000000	95.381	159.7048
64.000000	95.305	159.4545
65.000000	95.219	159.3100
66.000000	95.139	159.2615
67.000000	95.088	159.1548
68.000000	95.058	158.7753
69.000000	95.021	158.1333
70.000000	94.970	157.3882
71.000000	94.907	156.6903
72.000000	94.842	156.1394
73.000000	94.782	155.7220
74.000000	94.716	155.4473
75.000000	94.649	155.3558
76.199997	94.581	155.3589
77.500000	94.515	155.3077
78.800003	94.444	155.1549
80.000000	94.376	154.9330
81.199997	94.308	154.6565
82.500000	94.234	154.3271
83.800003	94.159	153.9838
85.000000	94.085	153.6676
86.199997	94.006	153.3855
87.500000	93.917	153.1384
88.500000	93.850	152.9847
90.000000	93.754	152.8050
91.199997	93.682	152.6945
92.500000	93.608	152.5776
93.800003	93.534	152.4405
95.000000	93.464	152.3002
96.199997	93.393	152.1572
97.500000	93.317	152.0106
98.800003	93.244	151.8851
100.000000	93.179	151.7925
101.500000	93.100	151.7004
103.000000	93.020	151.6183
104.400002	92.947	151.5353
106.000000	92.866	151.4200
107.500000	92.795	151.3034
109.000000	92.725	151.1991
110.599998	92.648	151.1025
112.000000	92.578	151.0104
113.800003	92.491	150.8317
115.000000	92.441	150.6628
117.199997	92.375	150.2872
118.000000	92.354	150.1522
120.599998	92.244	149.9975
122.000000	92.153	150.2290
124.099998	92.006	150.7300
125.000000	91.944	150.8951
126.500000	91.845	151.0616
128.000000	91.756	151.1400
131.500000	91.586	151.4299
132.000000	91.562	151.5105
134.000000	91.460	151.9318
136.000000	91.375	152.3703
138.000000	91.325	152.6131
140.000000	91.299	152.7055
143.000000	91.249	152.9242
145.000000	91.191	153.1852
147.500000	91.125	153.4653
150.000000	91.086	153.5454
152.500000	91.045	153.7417
155.000000	91.007	154.1215
157.500000	90.971	154.3581
160.000000	90.941	154.3671
162.500000	90.910	154.2571
165.000000	90.862	154.1410
167.500000	90.794	154.0690
170.000000	90.723	154.0525
172.500000	90.657	154.0728
175.000000	90.590	154.1274
177.500000	90.525	154.1943
180.000000	90.463	154.2510
182.500000	90.401	154.2973
185.000000	90.337	154.3470
187.500000	90.270	154.4098
190.000000	90.204	154.4805
192.500000	90.137	154.5552
195.000000	90.070	154.6363
197.500000	90.004	154.7306
200.000000	89.939	154.8533
203.000000	89.863	155.0557
206.000000	89.792	155.2962
209.000000	89.728	155.5172
212.000000	89.666	155.6873
214.000000	89.622	155.7794
218.000000	89.526	155.9973
220.000000	89.478	156.1598
224.000000	89.393	156.5674
227.000000	89.335	156.8801
230.000000	89.279	157.1684
233.000000	89.225	157.4307
236.000000	89.172	157.6663
240.000000	89.100	157.9433
243.000000	89.045	158.1371
247.000000	88.971	158.4092
250.000000	88.918	158.6526
254.000000	88.851	159.0466
258.000000	88.793	159.4628
262.000000	88.745	159.8235
265.000000	88.710	160.0671
269.000000	88.659	160.4068
272.000000	88.618	160.6821
276.000000	88.564	161.0663
280.000000	88.517	161.4618
285.000000	88.469	161.9462
290.000000	88.432	162.3557
295.000000	88.391	162.6669
300.000000	88.338	162.9653
304.000000	88.292	163.2391
307.000000	88.259	163.4603
311.000000	88.217	163.7614
315.000000	88.175	164.0628
320.000000	88.123	164.4562
325.000000	88.072	164.8860
330.000000	88.028	165.3347
335.000000	87.990	165.7728
340.000000	87.956	166.1847
345.000000	87.923	166.5764
350.000000	87.889	166.9645
355.000000	87.856	167.3537
360.000000	87.824	167.7360
365.000000	87.793	168.1065
370.000000	87.763	168.4705
375.000000	87.734	168.8337
382.000000	87.693	169.3405
387.000000	87.664	169.7001
395.000000	87.619	170.2785
400.000000	87.593	170.6426
406.000000	87.562	171.0748
412.000000	87.532	171.4991
418.000000	87.500	171.9320
425.000000	87.464	172.4715
431.000000	87.439	172.9539
437.000000	87.420	173.4278
444.000000	87.403	173.9529
450.000000	87.394	174.3650
455.000000	87.387	174.6654
462.000000	87.369	175.0342
468.000000	87.346	175.3549
475.000000	87.314	175.7727
482.000000	87.285	176.2175
487.000000	87.264	176.5375
494.000000	87.233	177.0044
500.000000	87.209	177.4356
508.000000	87.183	178.0218
515.000000	87.164	178.5142
522.000000	87.144	178.9975
530.000000	87.120	179.5692
538.000000	87.100	-179.8377
545.000000	87.086	-179.3179
552.000000	87.074	-178.8016
560.000000	87.064	-178.2256
570.000000	87.053	-177.5356
580.000000	87.039	-176.8508
590.000000	87.026	-176.1496
600.000000	87.014	-175.4216
608.000000	87.009	-174.8333
615.000000	87.006	-174.3243
622.000000	87.002	-173.8097
630.000000	86.998	-173.1951
640.000000	87.001	-172.3946
650.000000	87.015	-171.5881
660.000000	87.040	-170.8041
670.000000	87.073	-170.1005
680.000000	87.103	-169.4805
690.000000	87.124	-168.8841
700.000000	87.141	-168.2648
710.000000	87.158	-167.6144
720.000000	87.178	-166.9537
730.000000	87.201	-166.2934
740.000000	87.226	-165.6300
750.000000	87.253	-164.9599
762.000000	87.290	-164.1479
775.000000	87.335	-163.2666
788.000000	87.387	-162.3911
800.000000	87.441	-161.5819
812.000000	87.506	-160.7802
825.000000	87.589	-159.9869
838.000000	87.674	-159.3365
850.000000	87.740	-158.8259
862.000000	87.788	-158.3113
875.000000	87.829	-157.6611
885.000000	87.862	-157.0718
900.000000	87.928	-156.0967
912.000000	87.999	-155.3037
925.000000	88.091	-154.4874
938.000000	88.191	-153.7455
950.000000	88.286	-153.1288
962.000000	88.380	-152.5593
975.000000	88.481	-151.9717
988.000000	88.582	-151.4020
1000.000000	88.675	-150.8829
1015.000000	88.794	-150.2255
1030.000000	88.925	-149.5765
1044.000000	89.058	-149.0375
1060.000000	89.213	-148.5561
1075.000000	89.351	-148.2039
1090.000000	89.480	-147.8924
1106.000000	89.612	-147.5826
1120.000000	89.724	-147.3252
1138.000000	89.864	-147.0033
1150.000000	89.956	-146.7897
1172.000000	90.126	-146.3912
1180.000000	90.189	-146.2433
1206.000000	90.408	-145.8211
1220.000000	90.529	-145.6858
1241.000000	90.699	-145.5919
1250.000000	90.767	-145.5697
1265.000000	90.874	-145.5360
1280.000000	90.977	-145.4985
1315.000000	91.211	-145.3947
1320.000000	91.244	-145.3826
1340.000000	91.373	-145.3493
1360.000000	91.497	-145.3244
1380.000000	91.615	-145.2757
1400.000000	91.736	-145.1814
1430.000000	91.936	-145.0543
1450.000000	92.074	-145.0709
1475.000000	92.236	-145.1860
1500.000000	92.385	-145.3405
1525.000000	92.522	-145.4840
1550.000000	92.656	-145.5811
1575.000000	92.796	-145.6411
1600.000000	92.945	-145.7526
1625.000000	93.091	-145.9655
1650.000000	93.225	-146.2330
1675.000000	93.348	-146.5033
1700.000000	93.466	-146.7616
1725.000000	93.578	-147.0140
1750.000000	93.682	-147.2399
1775.000000	93.783	-147.3989
1800.000000	93.893	-147.4965
1825.000000	94.013	-147.6024
1850.000000	94.137	-147.7578
1875.000000	94.260	-147.9504
1900.000000	94.382	-148.1523
1925.000000	94.505	-148.3421
1950.000000	94.637	-148.5271
1975.000000	94.780	-148.7632
2000.000000	94.928	-149.1104
2030.000000	95.097	-149.6794
2060.000000	95.250	-150.3582
2090.000000	95.385	-151.0927
2120.000000	95.501	-151.8415
2140.000000	95.569	-152.3186
2180.000000	95.694	-153.1569
2200.000000	95.758	-153.5331
2240.000000	95.892	-154.2773
2270.000000	95.994	-154.8436
2300.000000	96.097	-155.4059
2330.000000	96.207	-155.9688
2360.000000	96.327	-156.5867
2400.000000	96.490	-157.6092
2430.000000	96.600	-158.5333
2470.000000	96.716	-159.8978
2500.000000	96.778	-160.9557
2540.000000	96.826	-162.3017
2580.000000	96.853	-163.4987
2620.000000	96.871	-164.5826
2650.000000	96.878	-165.3460
2690.000000	96.880	-166.2763
2720.000000	96.878	-166.8856
2760.000000	96.881	-167.6020
2800.000000	96.892	-168.2670
2850.000000	96.913	-169.0676
2900.000000	96.937	-169.8401
2950.000000	96.968	-170.5616
3000.000000	97.012	-171.2785
3040.000000	97.052	-171.9064
3070.000000	97.080	-172.4020
3110.000000	97.115	-173.0608
3150.000000	97.153	-173.7145
3200.000000	97.206	-174.5782
3250.000000	97.258	-175.5409
3300.000000	97.297	-176.5864
3350.000000	97.320	-177.6367
3400.000000	97.335	-178.6607
3450.000000	97.342	-179.6617
3500.000000	97.344	179.3951
3550.000000	97.351	178.5135
3600.000000	97.369	177.6293
3650.000000	97.395	176.6749
3700.000000	97.419	175.6338
3750.000000	97.439	174.5305
3820.000000	97.459	172.8774
3870.000000	97.464	171.6234
3950.000000	97.457	169.5386
4000.000000	97.449	168.1432
4060.000000	97.426	166.3091
4120.000000	97.375	164.3167
4180.000000	97.286	162.2264
4250.000000	97.129	159.7473
4310.000000	96.948	157.6995
4370.000000	96.732	155.7833
4440.000000	96.448	153.6946
4500.000000	96.175	152.0243
4550.000000	95.926	150.7394
4620.000000	95.545	149.1400
4680.000000	95.189	148.0121
4750.000000	94.750	147.0464
4820.000000	94.302	146.4362
4870.000000	93.983	146.1827
4940.000000	93.537	146.0579
5000.000000	93.155	146.1546
5080.000000	92.646	146.6065
5150.000000	92.206	147.3512
5220.000000	91.785	148.4023
5300.000000	91.338	149.9012
5380.000000	90.929	151.6443
5450.000000	90.600	153.3384
5520.000000	90.297	155.2037
5600.000000	89.992	157.5392
5700.000000	89.684	160.6568
5800.000000	89.457	163.8410
5900.000000	89.298	167.0150
6000.000000	89.202	170.1852
6080.000000	89.175	172.6649
6150.000000	89.182	174.7372
6220.000000	89.210	176.6974
6300.000000	89.258	178.8329
6400.000000	89.339	-178.5569
6500.000000	89.455	-175.9478
6600.000000	89.618	-173.3498
6700.000000	89.834	-170.7857
6800.000000	90.117	-168.2594
6900.000000	90.486	-165.8322
7000.000000	90.955	-163.6596
7100.000000	91.523	-161.9384
7200.000000	92.179	-160.8576
7300.000000	92.904	-160.6174
7400.000000	93.664	-161.4248
7500.000000	94.416	-163.4298
7620.000000	95.250	-167.5030
7750.000000	95.994	-174.0183
7880.000000	96.464	177.3752
8000.000000	96.558	168.1627
8120.000000	96.279	158.8077
8250.000000	95.582	149.8069
8380.000000	94.558	142.9367
8500.000000	93.427	138.7937
8620.000000	92.223	136.5921
8750.000000	90.927	135.9636
8850.000000	89.974	136.4550
9000.000000	88.655	138.3999
9120.000000	87.712	140.7116
9250.000000	86.804	143.7513
9380.000000	86.006	147.2183
9500.000000	85.365	150.6886
9620.000000	84.809	154.3311
9750.000000	84.295	158.4249
9880.000000	83.870	162.6267
10000.000000	83.552	166.5483
10150.000000	83.249	171.4729
10300.000000	83.055	176.3881
10440.000000	82.975	-179.1008
10600.000000	83.006	-174.1041
10750.000000	83.169	-169.6810
10900.000000	83.470	-165.7014
11060.000000	83.941	-162.2359
11200.000000	84.457	-160.2110
11380.000000	85.170	-159.5327
11500.000000	85.604	-160.4701
11720.000000	86.136	-164.8702
11800.000000	86.212	-167.0886
12060.000000	85.971	-174.8607
12200.000000	85.555	-178.5687
12410.000000	84.619	177.4948
12500.000000	84.120	176.6206
12650.000000	83.184	176.5400
12800.000000	82.180	178.3326
13150.000000	80.116	-171.4561
13200.000000	79.902	-169.5433
13400.000000	79.331	-161.4331
13600.000000	79.237	-153.3130
13800.000000	79.564	-146.0639
14000.000000	80.187	-140.3539
14300.000000	81.381	-135.2755
14500.000000	82.240	-134.1005
14750.000000	83.355	-134.9433
15000.000000	84.482	-138.8258
15250.000000	85.465	-146.8367
15500.000000	86.021	-159.5753
15750.000000	85.854	-175.4449
16000.000000	84.835	169.5126
16250.000000	83.064	158.8934
16500.000000	80.786	153.8238
16750.000000	78.263	153.6193
17000.000000	75.728	157.0040
17250.000000	73.363	162.7202
17500.000000	71.284	169.8000
17750.000000	69.532	177.5942
18000.000000	68.097	-174.3168
18250.000000	66.945	-166.2102
18500.000000	66.032	-158.3117
18750.000000	65.312	-150.8158
19000.000000	64.742	-143.8433
19250.000000	64.277	-137.4456
19500.000000	63.877	-131.6380
19750.000000	63.502	-126.4173
20000.000000	63.122	-121.7944
