* Measurement data measured by REW V5.20
* Source: Mic in at front panel (Pink) (Realtek(R) Audio), no input selected, L, volume: 0.250
* Format: 256k Log Swept Sine, 1 sweep at -12.0 dBFS with no timing reference
* Dated: Sep 5, 2021 12:59:52 AM
* REW Settings:
*  C-weighting compensation: Off
*  Target level: 75.0 dB
* Note: Tripowin Mele
* Measurement: Sep 5
* Smoothing: 1/12 octave
* Frequency Step: 1/48 octave
* Start Frequency: 20.000 Hz
*
* Freq(Hz)	SPL(dB)	Phase(degrees)
20.000000	102.5	26.2186
20.299999	102.5	25.5047
20.600000	102.5	24.8051
20.900000	102.5	24.1180
21.200001	102.5	23.4425
21.400000	102.5	22.9986
21.799999	102.5	22.1271
22.000000	102.5	21.6998
22.400000	102.5	20.8630
22.700001	102.5	20.2503
23.000000	102.5	19.6490
23.299999	102.5	19.0575
23.600000	102.5	18.4744
24.000000	102.5	17.7090
24.299999	102.5	17.1443
24.700001	102.5	16.4049
25.000000	102.5	15.8618
25.400000	102.5	15.1539
25.799999	102.5	14.4642
26.200001	102.5	13.7913
26.500000	102.5	13.2963
26.900000	102.5	12.6478
27.200001	102.5	12.1699
27.600000	102.5	11.5436
28.000000	102.4	10.9306
28.500000	102.4	10.1840
29.000000	102.4	9.4584
29.500000	102.4	8.7508
30.000000	102.4	8.0577
30.400000	102.4	7.5127
30.700001	102.3	7.1098
31.100000	102.3	6.5814
31.500000	102.3	6.0638
32.000000	102.3	5.4313
32.500000	102.3	4.8110
33.000000	102.3	4.1984
33.500000	102.2	3.5919
34.000000	102.2	2.9939
34.500000	102.2	2.4074
35.000000	102.2	1.8343
35.500000	102.1	1.2744
36.000000	102.1	0.7270
36.500000	102.1	0.1919
37.000000	102.1	-0.3307
37.500000	102.0	-0.8412
38.200001	102.0	-1.5378
38.700001	102.0	-2.0238
39.500000	101.9	-2.7813
40.000000	101.9	-3.2421
40.599998	101.9	-3.7832
41.200001	101.8	-4.3122
41.799999	101.8	-4.8286
42.500000	101.8	-5.4142
43.099998	101.7	-5.9028
43.700001	101.7	-6.3806
44.400002	101.6	-6.9246
45.000000	101.6	-7.3795
45.500000	101.6	-7.7516
46.200001	101.5	-8.2637
46.799999	101.5	-8.6939
47.500000	101.4	-9.1829
48.200001	101.4	-9.6567
48.700001	101.4	-9.9868
49.400002	101.3	-10.4390
50.000000	101.3	-10.8190
50.799999	101.2	-11.3158
51.500000	101.2	-11.7389
52.200001	101.2	-12.1450
53.000000	101.1	-12.5846
53.799999	101.1	-13.0039
54.500000	101.0	-13.3623
55.200001	101.0	-13.7173
56.000000	100.9	-14.1227
57.000000	100.9	-14.6332
58.000000	100.8	-15.1444
59.000000	100.8	-15.6462
60.000000	100.7	-16.1357
60.799999	100.7	-16.5179
61.500000	100.6	-16.8408
62.200001	100.6	-17.1505
63.000000	100.5	-17.4901
64.000000	100.4	-17.8998
65.000000	100.4	-18.2994
66.000000	100.3	-18.6920
67.000000	100.3	-19.0747
68.000000	100.2	-19.4429
69.000000	100.1	-19.7944
70.000000	100.1	-20.1231
71.000000	100.0	-20.4281
72.000000	100.0	-20.7268
73.000000	99.9	-21.0275
74.000000	99.8	-21.3104
75.000000	99.8	-21.5640
76.199997	99.7	-21.8528
77.500000	99.6	-22.1761
78.800003	99.5	-22.5054
80.000000	99.5	-22.7926
81.199997	99.4	-23.0574
82.500000	99.3	-23.3237
83.800003	99.2	-23.5626
85.000000	99.2	-23.7533
86.199997	99.1	-23.9247
87.500000	99.1	-24.1118
88.500000	99.0	-24.2715
90.000000	99.0	-24.5388
91.199997	98.9	-24.7664
92.500000	98.8	-25.0217
93.800003	98.8	-25.2852
95.000000	98.7	-25.5316
96.199997	98.7	-25.7758
97.500000	98.6	-26.0334
98.800003	98.5	-26.2775
100.000000	98.5	-26.4832
101.500000	98.4	-26.7096
103.000000	98.3	-26.9073
104.400002	98.3	-27.0770
106.000000	98.2	-27.2657
107.500000	98.1	-27.4442
109.000000	98.0	-27.6266
110.599998	97.9	-27.8248
112.000000	97.9	-27.9998
113.800003	97.8	-28.2164
115.000000	97.7	-28.3422
117.199997	97.6	-28.4903
118.000000	97.5	-28.5101
120.599998	97.4	-28.4564
122.000000	97.3	-28.3781
124.099998	97.2	-28.2365
125.000000	97.2	-28.1711
126.500000	97.1	-28.0588
128.000000	97.1	-27.9487
131.500000	97.0	-27.7756
132.000000	97.0	-27.7675
134.000000	96.9	-27.7788
136.000000	96.9	-27.8506
138.000000	96.8	-27.9747
140.000000	96.7	-28.1332
143.000000	96.6	-28.3658
145.000000	96.5	-28.4635
147.500000	96.4	-28.5023
150.000000	96.4	-28.5156
152.500000	96.3	-28.5424
155.000000	96.2	-28.5219
157.500000	96.1	-28.4249
160.000000	96.0	-28.3220
162.500000	95.9	-28.2644
165.000000	95.8	-28.2427
167.500000	95.8	-28.2189
170.000000	95.7	-28.1609
172.500000	95.6	-28.0622
175.000000	95.5	-27.9398
177.500000	95.4	-27.8166
180.000000	95.3	-27.7097
182.500000	95.3	-27.6173
185.000000	95.2	-27.5273
187.500000	95.1	-27.4401
190.000000	95.1	-27.3596
192.500000	95.0	-27.2745
195.000000	94.9	-27.1569
197.500000	94.8	-26.9975
200.000000	94.8	-26.8118
203.000000	94.7	-26.5745
206.000000	94.6	-26.3455
209.000000	94.6	-26.1444
212.000000	94.5	-25.9722
214.000000	94.5	-25.8612
218.000000	94.4	-25.5939
220.000000	94.3	-25.4301
224.000000	94.2	-25.0885
227.000000	94.1	-24.8534
230.000000	94.1	-24.6282
233.000000	94.0	-24.3943
236.000000	94.0	-24.1571
240.000000	93.9	-23.8604
243.000000	93.8	-23.6501
247.000000	93.7	-23.3549
250.000000	93.7	-23.1008
254.000000	93.6	-22.7072
258.000000	93.5	-22.2918
262.000000	93.5	-21.9247
265.000000	93.4	-21.6855
269.000000	93.4	-21.3713
272.000000	93.3	-21.1151
276.000000	93.3	-20.7420
280.000000	93.2	-20.3493
285.000000	93.2	-19.8744
290.000000	93.1	-19.4867
295.000000	93.1	-19.1918
300.000000	93.0	-18.8981
304.000000	92.9	-18.6273
307.000000	92.9	-18.4091
311.000000	92.8	-18.1119
315.000000	92.8	-17.8135
320.000000	92.7	-17.4210
325.000000	92.7	-16.9885
330.000000	92.6	-16.5336
335.000000	92.5	-16.0859
340.000000	92.5	-15.6595
345.000000	92.4	-15.2461
350.000000	92.4	-14.8289
355.000000	92.3	-14.4025
360.000000	92.3	-13.9705
365.000000	92.2	-13.5360
370.000000	92.2	-13.0997
375.000000	92.1	-12.6614
382.000000	92.1	-12.0452
387.000000	92.0	-11.6046
395.000000	92.0	-10.8978
400.000000	91.9	-10.4558
406.000000	91.9	-9.9327
412.000000	91.8	-9.4209
418.000000	91.8	-8.9040
425.000000	91.7	-8.2697
431.000000	91.7	-7.7068
437.000000	91.7	-7.1528
444.000000	91.7	-6.5363
450.000000	91.6	-6.0490
455.000000	91.6	-5.6884
462.000000	91.6	-5.2385
468.000000	91.6	-4.8498
475.000000	91.5	-4.3522
482.000000	91.5	-3.8259
487.000000	91.4	-3.4470
494.000000	91.4	-2.8977
500.000000	91.4	-2.3968
508.000000	91.3	-1.7188
515.000000	91.3	-1.1465
522.000000	91.3	-0.5834
530.000000	91.2	0.0795
538.000000	91.2	0.7637
545.000000	91.2	1.3630
552.000000	91.2	1.9585
560.000000	91.2	2.6260
570.000000	91.1	3.4341
580.000000	91.1	4.2393
590.000000	91.1	5.0593
600.000000	91.1	5.9039
608.000000	91.0	6.5852
615.000000	91.0	7.1756
622.000000	91.0	7.7712
630.000000	91.0	8.4780
640.000000	91.0	9.3929
650.000000	91.0	10.3131
660.000000	91.0	11.2119
670.000000	91.1	12.0313
680.000000	91.1	12.7668
690.000000	91.1	13.4780
700.000000	91.1	14.2118
710.000000	91.1	14.9777
720.000000	91.1	15.7549
730.000000	91.1	16.5322
740.000000	91.2	17.3120
750.000000	91.2	18.0968
762.000000	91.2	19.0433
775.000000	91.2	20.0645
788.000000	91.3	21.0670
800.000000	91.3	21.9768
812.000000	91.4	22.8608
825.000000	91.5	23.7313
838.000000	91.5	24.4810
850.000000	91.6	25.1405
862.000000	91.6	25.8619
875.000000	91.6	26.7432
885.000000	91.7	27.4697
900.000000	91.7	28.5737
912.000000	91.8	29.4477
925.000000	91.8	30.3742
938.000000	91.9	31.2623
950.000000	92.0	32.0424
962.000000	92.1	32.7968
975.000000	92.1	33.6030
988.000000	92.2	34.4031
1000.000000	92.3	35.1382
1015.000000	92.4	36.0627
1030.000000	92.6	36.9735
1044.000000	92.7	37.7541
1060.000000	92.8	38.5117
1075.000000	93.0	39.1226
1090.000000	93.1	39.6908
1106.000000	93.3	40.2703
1120.000000	93.4	40.7577
1138.000000	93.5	41.3624
1150.000000	93.6	41.7537
1172.000000	93.8	42.4506
1180.000000	93.9	42.6975
1206.000000	94.1	43.4067
1220.000000	94.3	43.6779
1241.000000	94.5	43.9667
1250.000000	94.5	44.0762
1265.000000	94.6	44.2737
1280.000000	94.7	44.5143
1315.000000	95.0	45.3453
1320.000000	95.0	45.4940
1340.000000	95.2	46.1272
1360.000000	95.4	46.7420
1380.000000	95.6	47.2230
1400.000000	95.9	47.5048
1430.000000	96.3	47.4913
1450.000000	96.5	47.1977
1475.000000	96.8	46.6697
1500.000000	97.0	46.1489
1525.000000	97.1	45.7444
1550.000000	97.3	45.4828
1575.000000	97.4	45.3243
1600.000000	97.5	45.1552
1625.000000	97.6	44.9095
1650.000000	97.7	44.6259
1675.000000	97.8	44.3528
1700.000000	97.9	44.1025
1725.000000	98.0	43.8648
1750.000000	98.1	43.6573
1775.000000	98.1	43.5256
1800.000000	98.2	43.4785
1825.000000	98.3	43.4675
1850.000000	98.4	43.4784
1875.000000	98.4	43.5566
1900.000000	98.5	43.7581
1925.000000	98.7	44.1023
1950.000000	98.8	44.5213
1975.000000	99.1	44.8359
2000.000000	99.4	44.8369
2030.000000	99.7	44.2765
2060.000000	100.1	43.1582
2090.000000	100.3	41.6812
2120.000000	100.5	40.0695
2140.000000	100.6	39.0199
2180.000000	100.8	37.1429
2200.000000	100.8	36.3183
2240.000000	100.9	34.8217
2270.000000	101.0	33.7980
2300.000000	101.0	32.8403
2330.000000	101.1	31.9143
2360.000000	101.2	30.9497
2400.000000	101.3	29.5103
2430.000000	101.3	28.3472
2470.000000	101.3	26.8167
2500.000000	101.3	25.7562
2540.000000	101.3	24.5278
2580.000000	101.2	23.5090
2620.000000	101.2	22.5996
2650.000000	101.2	21.9579
2690.000000	101.1	21.2037
2720.000000	101.1	20.7542
2760.000000	101.1	20.2783
2800.000000	101.0	19.8298
2850.000000	101.0	19.1610
2900.000000	101.0	18.3352
2950.000000	101.0	17.4747
3000.000000	101.0	16.6779
3040.000000	101.0	16.0917
3070.000000	100.9	15.6979
3110.000000	100.9	15.2618
3150.000000	100.8	14.9183
3200.000000	100.8	14.5470
3250.000000	100.7	14.1768
3300.000000	100.7	13.8094
3350.000000	100.7	13.5112
3400.000000	100.6	13.3032
3450.000000	100.6	13.1697
3500.000000	100.6	13.1254
3550.000000	100.6	13.1495
3600.000000	100.6	13.1562
3650.000000	100.7	13.0646
3700.000000	100.8	12.8574
3750.000000	100.8	12.5724
3820.000000	100.9	12.0846
3870.000000	100.9	11.7114
3950.000000	101.0	11.1427
4000.000000	101.1	10.7355
4060.000000	101.1	10.0720
4120.000000	101.2	9.1776
4180.000000	101.3	8.0701
4250.000000	101.3	6.5624
4310.000000	101.4	5.1846
4370.000000	101.3	3.7804
4440.000000	101.3	2.0736
4500.000000	101.3	0.5279
4550.000000	101.2	-0.8076
4620.000000	101.1	-2.7216
4680.000000	100.9	-4.3399
4750.000000	100.7	-6.1145
4820.000000	100.5	-7.7542
4870.000000	100.3	-8.8560
4940.000000	100.0	-10.2968
5000.000000	99.8	-11.4252
5080.000000	99.4	-12.7180
5150.000000	99.1	-13.5862
5220.000000	98.7	-14.2137
5300.000000	98.3	-14.6885
5380.000000	97.8	-14.9205
5450.000000	97.4	-14.8639
5520.000000	97.0	-14.4100
5600.000000	96.4	-13.1682
5700.000000	95.8	-10.3577
5800.000000	95.5	-6.9896
5900.000000	95.3	-4.7457
6000.000000	95.1	-3.3704
6080.000000	94.8	-1.9694
6150.000000	94.6	-0.3271
6220.000000	94.4	1.6148
6300.000000	94.2	4.0647
6400.000000	94.1	7.3262
6500.000000	94.0	10.6767
6600.000000	94.1	13.9899
6700.000000	94.2	17.1898
6800.000000	94.4	20.2637
6900.000000	94.7	23.1812
7000.000000	95.1	25.8534
7100.000000	95.6	28.1751
7200.000000	96.2	30.0449
7300.000000	96.9	31.3031
7400.000000	97.6	31.6877
7500.000000	98.5	30.8734
7620.000000	99.6	27.8429
7750.000000	100.6	21.4780
7880.000000	101.3	11.8125
8000.000000	101.5	0.9478
8120.000000	101.1	-9.9642
8250.000000	100.3	-19.8678
8380.000000	99.1	-26.6873
8500.000000	97.8	-30.2037
8620.000000	96.5	-31.5413
8750.000000	95.2	-31.2225
8850.000000	94.3	-30.0892
9000.000000	93.2	-27.3911
9120.000000	92.4	-24.6706
9250.000000	91.7	-21.3765
9380.000000	91.2	-17.8431
9500.000000	90.8	-14.4794
9620.000000	90.6	-11.1178
9750.000000	90.4	-7.5607
9880.000000	90.5	-4.2045
10000.000000	90.6	-1.4333
10150.000000	91.0	1.3401
10300.000000	91.6	2.9432
10440.000000	92.2	2.8604
10600.000000	93.0	0.2720
10750.000000	93.6	-4.8835
10900.000000	93.8	-12.2873
11060.000000	93.7	-21.2831
11200.000000	93.3	-28.8363
11380.000000	92.4	-37.4165
11500.000000	91.7	-42.6461
11720.000000	90.2	-51.4402
11800.000000	89.6	-54.1041
12060.000000	86.9	-58.7908
12200.000000	85.3	-58.1808
12410.000000	82.7	-53.2552
12500.000000	81.7	-49.9650
12650.000000	80.0	-43.4607
12800.000000	78.7	-36.2621
13150.000000	76.4	-19.2641
13200.000000	76.2	-16.9261
13400.000000	75.5	-7.8785
13600.000000	75.0	0.7227
13800.000000	74.6	8.9419
14000.000000	74.4	16.8276
14300.000000	74.3	28.0525
14500.000000	74.5	35.0634
14750.000000	74.9	43.0229
15000.000000	75.8	49.5346
15250.000000	76.9	53.6266
15500.000000	78.2	53.9136
15750.000000	79.2	49.1023
16000.000000	79.8	39.4370
16250.000000	79.6	27.8855
16500.000000	78.6	18.5846
16750.000000	77.1	13.5576
17000.000000	75.5	11.8338
17250.000000	74.0	11.3843
17500.000000	72.7	10.9274
17750.000000	71.5	10.1162
18000.000000	70.2	9.2231
18250.000000	68.6	9.1891
18500.000000	66.9	11.4010
18750.000000	64.9	16.6607
19000.000000	62.9	24.3040
19250.000000	61.0	32.7634
19500.000000	59.4	40.7339
19750.000000	58.1	47.2469
