* Measurement data measured by REW V5.20.4
* Source: Mic in at front panel (Pink) (Realtek(R) Audio), MICROPHONE (Master Volume), L, volume: 0.250
* Format: 256k Log Swept Sine, 1 sweep at -12.0 dBFS with no timing reference
* Dated: Jul 2, 2022 11:43:44 PM
* REW Settings:
*  C-weighting compensation: Off
*  Target level: 75.0 dB
* Note: TRN Kirin Ref L
* Measurement: KZ EDX Ultra Jul 2
* Smoothing: 1/12 octave
* Frequency Step: 1/48 octave
* Start Frequency: 20.000 Hz
*
* Freq(Hz)	SPL(dB)	Phase(degrees)
20.000000	89.381	48.6508
20.299999	89.410	47.9187
20.600000	89.440	47.2449
20.900000	89.475	46.5962
21.200001	89.515	45.9414
21.400000	89.544	45.4933
21.799999	89.605	44.5732
22.000000	89.635	44.1072
22.400000	89.693	43.1849
22.700001	89.734	42.5181
23.000000	89.774	41.8806
23.299999	89.816	41.2665
23.600000	89.859	40.6627
24.000000	89.917	39.8485
24.299999	89.958	39.2173
24.700001	90.002	38.3516
25.000000	90.024	37.7040
25.400000	90.041	36.8777
25.799999	90.050	36.1182
26.200001	90.060	35.4123
26.500000	90.068	34.8928
26.900000	90.075	34.1885
27.200001	90.075	33.6544
27.600000	90.064	32.9678
28.000000	90.048	32.3627
28.500000	90.040	31.7432
29.000000	90.064	31.1709
29.500000	90.116	30.4830
30.000000	90.173	29.6029
30.400000	90.207	28.8083
30.700001	90.226	28.2051
31.100000	90.244	27.4393
31.500000	90.259	26.7355
32.000000	90.278	25.9274
32.500000	90.299	25.1639
33.000000	90.322	24.4260
33.500000	90.347	23.7140
34.000000	90.374	23.0251
34.500000	90.399	22.3458
35.000000	90.420	21.6667
35.500000	90.430	21.0044
36.000000	90.429	20.4050
36.500000	90.420	19.9188
37.000000	90.412	19.5564
37.500000	90.415	19.2622
38.200001	90.437	18.7792
38.700001	90.454	18.2925
39.500000	90.457	17.3105
40.000000	90.443	16.6658
40.599998	90.423	15.9354
41.200001	90.408	15.2614
41.799999	90.403	14.6111
42.500000	90.406	13.8419
43.099998	90.411	13.1780
43.700001	90.414	12.5432
44.400002	90.414	11.8606
45.000000	90.415	11.3086
45.500000	90.413	10.8547
46.200001	90.405	10.2285
46.799999	90.392	9.7153
47.500000	90.372	9.1449
48.200001	90.349	8.5694
48.700001	90.330	8.1339
49.400002	90.297	7.4920
50.000000	90.265	6.9457
50.799999	90.223	6.2876
51.500000	90.195	5.7982
52.200001	90.179	5.3635
53.000000	90.169	4.8965
53.799999	90.162	4.4654
54.500000	90.159	4.1337
55.200001	90.161	3.8320
56.000000	90.163	3.4854
57.000000	90.153	3.0282
58.000000	90.127	2.5862
59.000000	90.103	2.1233
60.000000	90.082	1.5002
60.799999	90.057	0.8910
61.500000	90.026	0.3492
62.200001	89.994	-0.1548
63.000000	89.961	-0.6688
64.000000	89.929	-1.2203
65.000000	89.902	-1.6895
66.000000	89.877	-2.1163
67.000000	89.848	-2.5516
68.000000	89.805	-3.0112
69.000000	89.745	-3.4554
70.000000	89.677	-3.8370
71.000000	89.618	-4.1418
72.000000	89.589	-4.4459
73.000000	89.585	-4.8690
74.000000	89.582	-5.3717
75.000000	89.576	-5.8164
76.199997	89.577	-6.3146
77.500000	89.564	-6.9741
78.800003	89.512	-7.6369
80.000000	89.453	-8.1420
81.199997	89.403	-8.6328
82.500000	89.357	-9.2393
83.800003	89.310	-9.8885
85.000000	89.261	-10.4653
86.199997	89.205	-10.9860
87.500000	89.137	-11.4769
88.500000	89.082	-11.8051
90.000000	88.999	-12.2162
91.199997	88.942	-12.4926
92.500000	88.891	-12.7759
93.800003	88.843	-13.0453
95.000000	88.800	-13.2681
96.199997	88.756	-13.4830
97.500000	88.703	-13.7325
98.800003	88.643	-13.9989
100.000000	88.585	-14.2490
101.500000	88.518	-14.5505
103.000000	88.463	-14.8270
104.400002	88.419	-15.0581
106.000000	88.373	-15.3075
107.500000	88.327	-15.5595
109.000000	88.279	-15.8631
110.599998	88.226	-16.2604
112.000000	88.174	-16.6146
113.800003	88.091	-16.9287
115.000000	88.022	-16.9863
117.199997	87.874	-16.7540
118.000000	87.822	-16.5974
120.599998	87.707	-16.3673
122.000000	87.666	-16.6172
124.099998	87.601	-17.2099
125.000000	87.574	-17.4520
126.500000	87.531	-17.7959
128.000000	87.485	-18.0664
131.500000	87.365	-18.4560
132.000000	87.352	-18.4889
134.000000	87.326	-18.6005
136.000000	87.326	-18.7402
138.000000	87.293	-18.8719
140.000000	87.188	-18.7166
143.000000	87.004	-17.9766
145.000000	86.932	-17.6536
147.500000	86.904	-17.5618
150.000000	86.917	-17.5679
152.500000	86.921	-17.6395
155.000000	86.892	-17.8785
157.500000	86.843	-18.2905
160.000000	86.787	-18.7177
162.500000	86.716	-19.0739
165.000000	86.623	-19.3497
167.500000	86.524	-19.5712
170.000000	86.425	-19.7725
172.500000	86.314	-19.9440
175.000000	86.192	-20.0494
177.500000	86.076	-20.1173
180.000000	85.981	-20.1838
182.500000	85.911	-20.2441
185.000000	85.863	-20.2950
187.500000	85.824	-20.3430
190.000000	85.784	-20.3825
192.500000	85.736	-20.3921
195.000000	85.679	-20.3621
197.500000	85.616	-20.3074
200.000000	85.550	-20.2375
203.000000	85.473	-20.1350
206.000000	85.402	-20.0313
209.000000	85.330	-19.9452
212.000000	85.253	-19.8586
214.000000	85.199	-19.7876
218.000000	85.089	-19.6333
220.000000	85.037	-19.5652
224.000000	84.941	-19.4206
227.000000	84.875	-19.2739
230.000000	84.814	-19.1094
233.000000	84.755	-18.9423
236.000000	84.697	-18.7733
240.000000	84.618	-18.5499
243.000000	84.558	-18.3960
247.000000	84.474	-18.2052
250.000000	84.410	-18.0391
254.000000	84.331	-17.7504
258.000000	84.265	-17.4255
262.000000	84.206	-17.1461
265.000000	84.161	-16.9740
269.000000	84.094	-16.7443
272.000000	84.042	-16.5446
276.000000	83.974	-16.2415
280.000000	83.913	-15.9175
285.000000	83.850	-15.5248
290.000000	83.798	-15.2061
295.000000	83.742	-14.9757
300.000000	83.676	-14.7538
304.000000	83.622	-14.5406
307.000000	83.583	-14.3628
311.000000	83.530	-14.1155
315.000000	83.475	-13.8633
320.000000	83.403	-13.5276
325.000000	83.334	-13.1512
330.000000	83.271	-12.7470
335.000000	83.211	-12.3427
340.000000	83.151	-11.9548
345.000000	83.093	-11.5784
350.000000	83.038	-11.1993
355.000000	82.988	-10.8120
360.000000	82.939	-10.4143
365.000000	82.887	-10.0061
370.000000	82.836	-9.5933
375.000000	82.785	-9.1798
382.000000	82.721	-8.5988
387.000000	82.679	-8.1802
395.000000	82.615	-7.5001
400.000000	82.576	-7.0723
406.000000	82.529	-6.5663
412.000000	82.481	-6.0726
418.000000	82.433	-5.5733
425.000000	82.383	-4.9537
431.000000	82.349	-4.3983
437.000000	82.321	-3.8494
444.000000	82.292	-3.2359
450.000000	82.271	-2.7492
455.000000	82.255	-2.3878
462.000000	82.227	-1.9356
468.000000	82.194	-1.5441
475.000000	82.155	-1.0404
482.000000	82.117	-0.5054
487.000000	82.089	-0.1198
494.000000	82.049	0.4397
500.000000	82.016	0.9506
508.000000	81.982	1.6439
515.000000	81.956	2.2322
522.000000	81.928	2.8131
530.000000	81.895	3.4955
538.000000	81.867	4.1968
545.000000	81.847	4.8094
552.000000	81.830	5.4192
560.000000	81.814	6.1056
570.000000	81.796	6.9402
580.000000	81.776	7.7755
590.000000	81.753	8.6272
600.000000	81.732	9.5015
608.000000	81.723	10.2037
615.000000	81.718	10.8105
622.000000	81.713	11.4214
630.000000	81.708	12.1459
640.000000	81.708	13.0847
650.000000	81.717	14.0309
660.000000	81.739	14.9557
670.000000	81.773	15.7994
680.000000	81.805	16.5569
690.000000	81.828	17.2899
700.000000	81.843	18.0452
710.000000	81.859	18.8295
720.000000	81.879	19.6202
730.000000	81.903	20.4086
740.000000	81.929	21.2017
750.000000	81.955	22.0023
762.000000	81.989	22.9697
775.000000	82.032	24.0205
788.000000	82.082	25.0701
800.000000	82.137	26.0480
812.000000	82.202	27.0314
825.000000	82.286	28.0418
838.000000	82.376	28.9339
850.000000	82.453	29.6803
862.000000	82.521	30.4112
875.000000	82.590	31.2184
885.000000	82.645	31.8508
900.000000	82.730	32.7961
912.000000	82.801	33.5485
925.000000	82.882	34.3564
938.000000	82.970	35.1406
950.000000	83.053	35.8333
962.000000	83.135	36.5017
975.000000	83.226	37.2133
988.000000	83.317	37.9212
1000.000000	83.401	38.5795
1015.000000	83.510	39.4263
1030.000000	83.629	40.2819
1044.000000	83.753	41.0316
1060.000000	83.900	41.7783
1075.000000	84.035	42.4011
1090.000000	84.170	42.9984
1106.000000	84.317	43.6139
1120.000000	84.449	44.1212
1138.000000	84.617	44.7250
1150.000000	84.725	45.1047
1172.000000	84.918	45.7866
1180.000000	84.989	46.0371
1206.000000	85.233	46.8101
1220.000000	85.370	47.1483
1241.000000	85.568	47.5642
1250.000000	85.647	47.7305
1265.000000	85.776	48.0123
1280.000000	85.900	48.3070
1315.000000	86.189	49.0381
1320.000000	86.232	49.1426
1340.000000	86.403	49.5522
1360.000000	86.575	49.9614
1380.000000	86.748	50.4000
1400.000000	86.932	50.8896
1430.000000	87.246	51.6167
1450.000000	87.474	51.9989
1475.000000	87.771	52.3712
1500.000000	88.084	52.6789
1525.000000	88.416	52.9599
1550.000000	88.766	53.2394
1575.000000	89.121	53.4973
1600.000000	89.451	53.6349
1625.000000	89.712	53.5929
1650.000000	89.895	53.4098
1675.000000	90.031	53.1289
1700.000000	90.172	52.7554
1725.000000	90.354	52.2739
1750.000000	90.591	51.6940
1775.000000	90.879	51.0432
1800.000000	91.211	50.3010
1825.000000	91.566	49.3835
1850.000000	91.925	48.2357
1875.000000	92.276	46.8589
1900.000000	92.612	45.2760
1925.000000	92.930	43.5137
1950.000000	93.228	41.5798
1975.000000	93.504	39.4410
2000.000000	93.747	37.0644
2030.000000	93.976	33.9413
2060.000000	94.124	30.6586
2090.000000	94.187	27.3888
2120.000000	94.171	24.3073
2140.000000	94.126	22.4379
2180.000000	94.002	19.2137
2200.000000	93.941	17.7895
2240.000000	93.827	15.0468
2270.000000	93.730	12.9838
2300.000000	93.603	10.9594
2330.000000	93.440	9.0836
2360.000000	93.250	7.4414
2400.000000	92.974	5.6826
2430.000000	92.771	4.6936
2470.000000	92.534	3.6798
2500.000000	92.389	2.9722
2540.000000	92.214	1.9250
2580.000000	92.030	0.7679
2620.000000	91.815	-0.3740
2650.000000	91.631	-1.1151
2690.000000	91.368	-1.8279
2720.000000	91.172	-2.1340
2760.000000	90.934	-2.3361
2800.000000	90.728	-2.4766
2850.000000	90.492	-2.7206
2900.000000	90.247	-3.0013
2950.000000	89.977	-3.1191
3000.000000	89.700	-2.9642
3040.000000	89.487	-2.6719
3070.000000	89.338	-2.3669
3110.000000	89.156	-1.8558
3150.000000	89.000	-1.2698
3200.000000	88.837	-0.5238
3250.000000	88.693	0.2069
3300.000000	88.552	0.9852
3350.000000	88.417	1.8998
3400.000000	88.296	2.9371
3450.000000	88.188	4.0323
3500.000000	88.086	5.1833
3550.000000	87.996	6.3955
3600.000000	87.924	7.6334
3650.000000	87.872	8.8624
3700.000000	87.836	10.0906
3750.000000	87.820	11.3570
3820.000000	87.838	13.2231
3870.000000	87.882	14.6616
3950.000000	88.028	17.2386
4000.000000	88.180	18.9495
4060.000000	88.423	20.9395
4120.000000	88.719	22.7345
4180.000000	89.056	24.2312
4250.000000	89.487	25.4791
4310.000000	89.879	26.0844
4370.000000	90.293	26.2148
4440.000000	90.794	25.6521
4500.000000	91.218	24.4968
4550.000000	91.554	23.0619
4620.000000	91.978	20.3607
4680.000000	92.278	17.4802
4750.000000	92.545	13.5963
4820.000000	92.712	9.2669
4870.000000	92.761	5.9823
4940.000000	92.723	1.2896
5000.000000	92.589	-2.6455
5080.000000	92.268	-7.4610
5150.000000	91.875	-11.0331
5220.000000	91.406	-13.9141
5300.000000	90.808	-16.3802
5380.000000	90.167	-18.0333
5450.000000	89.582	-18.8701
5520.000000	88.985	-19.1602
5600.000000	88.307	-18.8751
5700.000000	87.504	-17.7745
5800.000000	86.778	-16.0804
5900.000000	86.136	-13.9399
6000.000000	85.578	-11.3866
6080.000000	85.200	-9.1058
6150.000000	84.920	-7.0095
6220.000000	84.686	-4.8845
6300.000000	84.467	-2.4642
6400.000000	84.247	0.5496
6500.000000	84.076	3.6071
6600.000000	83.958	6.7643
6700.000000	83.906	9.9789
6800.000000	83.920	13.1693
6900.000000	83.995	16.3439
7000.000000	84.142	19.5488
7100.000000	84.383	22.7453
7200.000000	84.745	25.8031
7300.000000	85.250	28.5063
7400.000000	85.905	30.5451
7500.000000	86.688	31.5414
7620.000000	87.724	30.7594
7750.000000	88.799	26.5825
7880.000000	89.561	18.3129
8000.000000	89.756	7.8167
8120.000000	89.347	-3.1248
8250.000000	88.265	-12.4664
8380.000000	86.714	-17.4086
8500.000000	85.095	-18.0665
8620.000000	83.504	-15.8123
8750.000000	81.982	-11.1611
8850.000000	81.015	-6.5840
9000.000000	79.921	1.1893
9120.000000	79.323	7.7524
9250.000000	78.879	15.0212
9380.000000	78.590	22.6721
9500.000000	78.489	30.4750
9620.000000	78.673	39.1507
9750.000000	79.344	48.8878
9880.000000	80.470	57.6779
10000.000000	81.779	64.2314
10150.000000	83.673	70.2814
10300.000000	85.795	73.8975
10440.000000	87.841	74.2924
10600.000000	89.962	69.7232
10750.000000	91.435	59.8197
10900.000000	92.198	45.8896
11060.000000	92.209	30.5672
11200.000000	91.710	19.7783
11380.000000	90.787	10.6439
11500.000000	90.227	6.6168
11720.000000	89.583	-0.1058
11800.000000	89.433	-3.0850
12060.000000	88.685	-14.8986
12200.000000	87.849	-20.1887
12410.000000	86.082	-22.3721
12500.000000	85.323	-21.5579
12650.000000	84.307	-19.9421
12800.000000	83.559	-19.3724
13150.000000	81.614	-17.0760
13200.000000	81.288	-15.8589
13400.000000	80.125	-8.4821
13600.000000	79.593	0.4844
13800.000000	79.719	7.6821
14000.000000	80.158	12.3817
14300.000000	81.179	16.6698
14500.000000	82.160	18.2396
14750.000000	83.704	18.2277
15000.000000	85.405	14.6490
15250.000000	86.869	5.6252
15500.000000	87.616	-9.1353
15750.000000	87.366	-25.9875
16000.000000	86.316	-40.4598
16250.000000	84.975	-51.9956
16500.000000	83.804	-62.6459
16750.000000	82.969	-74.8871
17000.000000	82.099	-89.7488
17250.000000	80.589	-103.6705
17500.000000	78.341	-113.0525
17750.000000	75.714	-119.0682
18000.000000	72.970	-122.2038
18250.000000	70.037	-118.3241
18500.000000	66.831	-104.0901
18750.000000	63.807	-85.0955
19000.000000	61.796	-71.3703
19250.000000	60.459	-64.2392
19500.000000	58.807	-55.9189
19750.000000	56.845	-43.3019
20000.000000	55.426	-32.8456
